voltage(V),current(A)
3.8510079999999998,-0.47
3.8478719999999997,-0.46
3.847774,-0.46
3.8479699999999997,-0.46
3.847774,-0.46
3.886386,-5.08
3.887562,-5.10
3.888248,-5.10
3.889228,-5.10
3.888542,-5.10
3.889228,-5.10
3.8897180000000002,-5.10
3.8903060000000003,-5.10
3.8909920000000002,-5.10
3.891776,-5.10
3.8926579999999995,-5.11
3.8933439999999995,-5.11
3.894618,-5.11
3.895304,-5.11
3.8957939999999995,-5.11
3.8961859999999997,-5.11
3.89648,-5.11
3.8969699999999996,-5.11
3.8967739999999997,-5.11
3.897656,-5.11
3.897656,-5.11
3.89795,-5.11
3.8980479999999997,-5.11
3.8981459999999997,-5.11
3.897852,-5.11
3.8988319999999996,-5.11
3.899028,-5.11
3.899518,-5.11
3.9005959999999997,-5.11
3.8999099999999998,-5.11
3.900498,-5.11
3.90089,-5.11
3.9012819999999997,-5.11
3.9011839999999998,-5.11
3.901772,-5.11
3.9024579999999998,-5.11
3.902752,-5.11
3.902948,-5.11
3.903634,-5.11
3.90432,-5.11
3.904614,-5.11
3.90481,-5.11
3.9053,-5.11
3.905594,-5.11
3.906182,-5.11
3.906966,-5.11
3.907064,-5.11
3.906672,-5.11
3.906476,-5.11
3.906966,-5.11
3.9068680000000002,-5.11
3.90726,-5.11
3.907358,-5.11
3.907358,-5.11
3.90775,-5.11
3.907652,-5.11
3.9079459999999995,-5.11
3.90824,-5.11
3.9081420000000002,-5.11
3.9086319999999994,-5.11
3.9085339999999995,-5.11
3.908436,-5.11
3.908828,-5.11
3.9093180000000003,-5.11
3.9092199999999995,-5.11
3.9096119999999996,-5.11
3.9098079999999995,-5.11
3.9103959999999995,-5.11
3.9113759999999997,-5.11
3.9114739999999997,-5.11
3.9106899999999998,-5.11
3.911278,-5.11
3.9119639999999998,-5.11
3.911866,-5.11
3.9120619999999997,-5.11
3.9119639999999998,-5.11
3.912356,-5.11
3.9128459999999996,-5.11
3.9132379999999998,-5.11
3.913728,-5.11
3.9146099999999997,-5.11
3.914218,-5.11
3.9152959999999997,-5.11
3.915492,-5.11
3.9152959999999997,-5.11
3.915492,-5.11
3.915688,-5.11
3.9158839999999997,-5.11
3.9159819999999996,-5.11
3.9164719999999997,-5.11
3.9165699999999997,-5.11
3.9164719999999997,-5.11
3.9165699999999997,-5.11
3.916668,-5.11
3.916766,-5.11
3.916962,-5.11
3.917354,-5.11
3.9171579999999997,-5.11
3.9170599999999998,-5.11
3.917354,-5.11
3.917452,-5.11
3.9178439999999997,-5.11
3.9178439999999997,-5.11
3.918138,-5.11
3.917942,-5.11
3.918138,-5.11
3.91853,-5.11
3.9184319999999997,-5.11
3.918138,-5.11
3.91853,-5.11
3.918628,-5.11
3.918922,-5.11
3.918922,-5.11
3.918824,-5.11
3.91951,-5.11
3.9196079999999998,-5.11
3.919412,-5.11
3.920196,-5.11
3.919314,-5.11
3.920098,-5.11
3.9202939999999997,-5.11
3.920588,-5.11
3.920392,-5.11
3.9208819999999998,-5.11
3.921274,-5.11
3.921568,-5.11
3.921764,-5.11
3.921666,-5.11
3.922352,-5.11
3.922548,-5.11
3.923136,-5.11
3.92294,-5.11
3.923136,-5.11
3.92343,-5.11
3.923038,-5.11
3.923332,-5.11
3.923822,-5.11
3.92392,-5.11
3.9240180000000002,-5.11
3.924508,-5.11
3.924704,-5.11
3.9249,-5.11
3.924998,-5.11
3.9250959999999995,-5.11
3.9256839999999995,-5.11
3.9257819999999994,-5.11
3.925488,-5.11
3.9257819999999994,-5.11
3.926076,-5.11
3.9262719999999995,-5.11
3.9263699999999995,-5.11
3.9262719999999995,-5.11
3.9262719999999995,-5.11
3.925978,-5.11
3.9265660000000002,-5.11
3.9264680000000003,-5.11
3.9268599999999996,-5.11
3.9270560000000003,-5.11
3.9269579999999995,-5.11
3.9271540000000003,-5.11
3.9270560000000003,-5.11
3.9272519999999997,-5.11
3.9273499999999997,-5.11
3.9275459999999995,-5.11
3.9273499999999997,-5.11
3.9276439999999995,-5.11
3.9279379999999997,-5.11
3.9277420000000003,-5.11
3.9280359999999996,-5.11
3.9278399999999998,-5.11
3.9277420000000003,-5.11
3.9279379999999997,-5.11
3.9278399999999998,-5.11
3.9282319999999995,-5.11
3.9285259999999997,-5.11
3.9282319999999995,-5.11
3.9282319999999995,-5.11
3.9282319999999995,-5.11
3.9288199999999995,-5.11
3.9285259999999997,-5.11
3.9282319999999995,-5.11
3.929016,-5.11
3.9291139999999998,-5.11
3.9294079999999996,-5.11
3.929506,-5.11
3.9294079999999996,-5.11
3.9297999999999997,-5.11
3.929702,-5.11
3.929604,-5.11
3.930192,-5.11
3.9304859999999997,-5.11
3.9304859999999997,-5.11
3.9305839999999996,-5.11
3.9306819999999996,-5.11
3.93078,-5.11
3.930976,-5.11
3.931564,-5.11
3.9312699999999996,-5.11
3.931564,-5.11
3.9316619999999998,-5.11
3.931564,-5.11
3.932642,-5.11
3.9325439999999996,-5.11
3.9323479999999997,-5.11
3.932838,-5.11
3.932838,-5.11
3.933524,-5.11
3.933818,-5.11
3.9342099999999998,-5.11
3.933524,-5.11
3.934406,-5.11
3.9342099999999998,-5.11
3.9343079999999997,-5.11
3.934798,-5.11
3.9347,-5.11
3.935386,-5.11
3.935092,-5.11
3.9349939999999997,-5.11
3.935386,-5.11
3.935386,-5.11
3.93519,-5.11
3.9355819999999997,-5.11
3.935974,-5.11
3.936072,-5.11
3.9354839999999998,-5.11
3.935974,-5.11
3.936464,-5.11
3.936072,-5.11
3.936268,-5.11
3.936562,-5.11
3.936366,-5.11
3.936464,-5.11
3.936954,-5.11
3.936268,-5.11
3.936366,-5.11
3.936562,-5.11
3.936856,-5.11
3.936856,-5.11
3.9367579999999998,-5.11
3.93666,-5.11
3.936856,-5.11
3.937052,-5.11
3.937052,-5.11
3.93715,-5.11
3.936954,-5.11
3.937346,-5.11
3.93764,-5.11
3.93764,-5.11
3.9374439999999997,-5.11
3.937542,-5.11
3.937738,-5.11
3.937934,-5.11
3.937542,-5.11
3.9374439999999997,-5.11
3.9374439999999997,-5.11
3.93813,-5.11
3.937836,-5.11
3.937934,-5.11
3.938326,-5.11
3.938228,-5.11
3.93813,-5.11
3.938424,-5.11
3.938522,-5.11
3.938424,-5.11
3.93911,-5.11
3.939208,-5.11
3.938522,-5.11
3.939012,-5.11
3.938718,-5.11
3.9053,-0.57
3.904124,-0.57
3.9037319999999998,-0.57
3.9031439999999997,-0.57
3.903046,-0.57
3.902164,-0.57
3.901674,-0.57
3.9011839999999998,-0.57
3.9004,-0.56
3.8999099999999998,-0.56
3.8999099999999998,-0.56
3.89893,-0.56
3.8986359999999998,-0.56
3.89795,-0.56
3.8973619999999998,-0.56
3.8973619999999998,-0.56
3.897068,-0.56
3.8968719999999997,-0.56
3.896578,-0.56
3.8962839999999996,-0.56
3.8960879999999998,-0.56
3.895402,-0.55
3.8955979999999997,-0.55
3.895206,-0.55
3.8950099999999996,-0.55
3.895402,-0.55
3.8948139999999998,-0.55
3.894716,-0.55
3.89403,-0.55
3.8945199999999995,-0.55
3.8942259999999997,-0.55
