voltage(V),current(A)
3.8510079999999998,-0.47
3.8471859999999998,-0.46
3.8472839999999997,-0.46
3.847676,-0.46
3.8478719999999997,-0.46
3.8859939999999997,-5.08
3.887072,-5.10
3.887562,-5.10
3.888346,-5.10
3.888934,-5.10
3.889326,-5.10
3.889424,-5.10
3.889816,-5.10
3.89109,-5.10
3.89109,-5.10
3.8921680000000003,-5.10
3.8931479999999996,-5.10
3.8938339999999996,-5.11
3.895206,-5.11
3.8955979999999997,-5.11
3.89599,-5.11
3.89648,-5.11
3.896676,-5.11
3.896676,-5.11
3.8967739999999997,-5.11
3.8974599999999997,-5.11
3.897656,-5.11
3.897754,-5.11
3.897754,-5.11
3.897754,-5.11
3.898342,-5.11
3.898538,-5.10
3.89844,-5.11
3.899126,-5.11
3.8988319999999996,-5.11
3.899714,-5.11
3.900302,-5.11
3.9005959999999997,-5.11
3.9005959999999997,-5.11
3.90089,-5.11
3.9018699999999997,-5.11
3.901968,-5.11
3.902262,-5.11
3.903242,-5.11
3.903242,-5.11
3.904222,-5.11
3.903928,-5.11
3.904222,-5.11
3.905202,-5.11
3.905594,-5.11
3.905692,-5.11
3.90628,-5.11
3.90628,-5.11
3.905888,-5.11
3.905888,-5.11
3.90677,-5.11
3.906966,-5.11
3.9068680000000002,-5.11
3.907162,-5.11
3.907554,-5.11
3.907554,-5.11
3.907652,-5.11
3.907652,-5.11
3.907652,-5.11
3.907848,-5.11
3.908338,-5.11
3.9080439999999994,-5.11
3.9081420000000002,-5.11
3.908828,-5.11
3.9087300000000003,-5.11
3.9087300000000003,-5.11
3.9094160000000002,-5.11
3.9093180000000003,-5.11
3.9101999999999997,-5.11
3.909514,-5.11
3.9101019999999997,-5.11
3.9105920000000003,-5.11
3.9105920000000003,-5.11
3.9109839999999996,-5.11
3.91118,-5.11
3.9107879999999997,-5.11
3.9119639999999998,-5.11
3.912454,-5.11
3.912356,-5.11
3.9129439999999995,-5.11
3.9132379999999998,-5.11
3.913728,-5.11
3.9140219999999997,-5.11
3.914316,-5.11
3.9147079999999996,-5.11
3.914414,-5.11
3.9151979999999997,-5.11
3.91559,-5.11
3.9153939999999996,-5.11
3.91559,-5.11
3.915688,-5.11
3.915688,-5.11
3.9159819999999996,-5.11
3.916276,-5.11
3.91608,-5.11
3.9165699999999997,-5.11
3.916276,-5.11
3.9165699999999997,-5.11
3.916766,-5.11
3.9170599999999998,-5.11
3.917256,-5.11
3.917354,-5.11
3.9171579999999997,-5.11
3.917256,-5.11
3.917648,-5.11
3.9177459999999997,-5.11
3.917942,-5.11
3.9177459999999997,-5.11
3.9178439999999997,-5.11
3.91804,-5.11
3.918138,-5.11
3.918138,-5.11
3.9184319999999997,-5.11
3.9184319999999997,-5.11
3.918138,-5.11
3.918726,-5.11
3.918824,-5.11
3.919118,-5.11
3.919216,-5.11
3.919118,-5.11
3.919314,-5.11
3.919412,-5.11
3.919706,-5.11
3.919706,-5.11
3.919902,-5.11
3.919902,-5.11
3.920588,-5.11
3.9202939999999997,-5.11
3.920784,-5.11
3.921666,-5.11
3.921274,-5.11
3.921274,-5.11
3.92147,-5.11
3.92147,-5.11
3.921862,-5.11
3.921666,-5.11
3.922058,-5.11
3.92245,-5.11
3.92294,-5.11
3.923136,-5.11
3.923136,-5.11
3.923626,-5.11
3.9240180000000002,-5.11
3.9240180000000002,-5.11
3.924704,-5.11
3.9246060000000003,-5.11
3.9249,-5.11
3.924508,-5.11
3.9250959999999995,-5.11
3.9256839999999995,-5.11
3.92539,-5.11
3.92539,-5.11
3.9258800000000003,-5.11
3.9262719999999995,-5.11
3.925978,-5.11
3.9256839999999995,-5.11
3.9264680000000003,-5.11
3.9267619999999996,-5.11
3.9262719999999995,-5.11
3.9267619999999996,-5.11
3.9263699999999995,-5.11
3.9264680000000003,-5.11
3.9270560000000003,-5.11
3.9271540000000003,-5.11
3.9271540000000003,-5.11
3.9269579999999995,-5.11
3.9272519999999997,-5.11
3.9273499999999997,-5.11
3.9270560000000003,-5.11
3.9273499999999997,-5.11
3.9273499999999997,-5.11
3.9273499999999997,-5.11
3.9277420000000003,-5.11
3.9276439999999995,-5.11
3.9276439999999995,-5.11
3.9277420000000003,-5.11
3.9279379999999997,-5.11
3.9279379999999997,-5.11
3.9279379999999997,-5.11
3.9282319999999995,-5.11
3.9279379999999997,-5.11
3.9282319999999995,-5.11
3.9281339999999996,-5.11
3.92833,-5.11
3.9286239999999997,-5.11
3.9281339999999996,-5.11
3.9291139999999998,-5.11
3.928918,-5.11
3.9285259999999997,-5.11
3.9292119999999997,-5.11
3.9293099999999996,-5.11
3.929016,-5.11
3.929604,-5.11
3.9298979999999997,-5.11
3.9299959999999996,-5.11
3.929702,-5.11
3.9299959999999996,-5.11
3.9300939999999995,-5.11
3.9299959999999996,-5.11
3.9303879999999998,-5.11
3.9312699999999996,-5.11
3.930878,-5.11
3.9312699999999996,-5.11
3.931466,-5.11
3.931564,-5.11
3.931564,-5.11
3.9316619999999998,-5.11
3.9318579999999996,-5.11
3.9316619999999998,-5.11
3.9331319999999996,-5.11
3.9325439999999996,-5.11
3.9325439999999996,-5.11
3.9329359999999998,-5.11
3.9329359999999998,-5.11
3.9336219999999997,-5.11
3.9343079999999997,-5.11
3.933524,-5.11
3.934014,-5.11
3.9343079999999997,-5.11
3.9343079999999997,-5.11
3.934504,-5.11
3.9347,-5.11
3.9349939999999997,-5.11
3.93519,-5.11
3.934602,-5.11
3.93568,-5.12
3.9349939999999997,-5.11
3.935092,-5.11
3.935092,-5.11
3.935778,-5.11
3.935778,-5.11
3.9355819999999997,-5.11
3.935876,-5.11
3.936072,-5.11
3.935876,-5.12
3.935778,-5.11
3.935876,-5.11
3.936464,-5.11
3.935876,-5.11
3.936464,-5.11
3.93666,-5.11
3.936072,-5.11
3.936072,-5.11
3.93666,-5.11
3.936366,-5.11
3.9367579999999998,-5.11
3.937052,-5.11
3.936856,-5.11
3.9367579999999998,-5.11
3.937346,-5.11
3.937052,-5.11
3.93666,-5.11
3.937346,-5.11
3.937346,-5.11
3.937248,-5.11
3.93764,-5.11
3.937346,-5.11
3.93715,-5.11
3.937738,-5.11
3.93764,-5.11
3.937934,-5.11
3.937934,-5.11
3.937836,-5.11
3.93764,-5.11
3.937738,-5.11
3.937836,-5.11
3.937934,-5.11
3.937934,-5.11
3.938424,-5.11
3.90432,-0.57
3.903634,-0.57
3.902752,-0.57
3.9024579999999998,-0.57
3.901674,-0.57
3.900792,-0.56
3.899714,-0.56
3.899224,-0.56
3.89893,-0.56
3.8981459999999997,-0.56
3.89795,-0.56
3.89795,-0.56
3.897264,-0.56
3.8968719999999997,-0.56
3.8962839999999996,-0.56
3.896578,-0.56
3.8961859999999997,-0.56
3.8954999999999997,-0.55
3.895206,-0.55
3.895206,-0.55
3.8948139999999998,-0.55
3.8950099999999996,-0.55
3.894618,-0.55
3.8943239999999997,-0.55
3.8942259999999997,-0.55
3.894128,-0.55
3.89403,-0.55
3.8934420000000003,-0.55
3.8934420000000003,-0.55
3.8934420000000003,-0.55
3.89354,-0.55
