voltage(V),current(A)
3.850812,-0.47
3.84748,-0.46
3.8473819999999996,-0.46
3.8472839999999997,-0.46
3.8466959999999997,-0.46
3.884818,-5.07
3.886386,-5.10
3.887366,-5.10
3.88766,-5.10
3.888052,-5.10
3.888542,-5.10
3.888738,-5.10
3.889032,-5.10
3.88962,-5.10
3.889326,-5.10
3.8907959999999995,-5.10
3.8909920000000002,-5.10
3.8922660000000002,-5.10
3.8928540000000003,-5.10
3.8938339999999996,-5.10
3.8944219999999996,-5.10
3.8956959999999996,-5.10
3.895892,-5.10
3.8957939999999995,-5.10
3.8960879999999998,-5.10
3.896578,-5.10
3.897166,-5.10
3.8974599999999997,-5.10
3.897166,-5.10
3.8975579999999996,-5.10
3.897656,-5.10
3.897754,-5.10
3.8981459999999997,-5.10
3.89844,-5.10
3.8987339999999997,-5.10
3.8986359999999998,-5.10
3.8988319999999996,-5.10
3.899518,-5.10
3.8993219999999997,-5.10
3.899714,-5.10
3.900204,-5.10
3.90089,-5.10
3.900988,-5.10
3.9006939999999997,-5.10
3.901576,-5.10
3.902066,-5.11
3.902164,-5.11
3.903046,-5.11
3.903242,-5.11
3.903242,-5.10
3.90432,-5.11
3.90432,-5.11
3.905104,-5.11
3.905104,-5.11
3.90579,-5.11
3.90579,-5.11
3.90628,-5.11
3.906476,-5.11
3.9068680000000002,-5.11
3.906574,-5.11
3.90677,-5.10
3.90677,-5.10
3.9068680000000002,-5.10
3.907848,-5.11
3.907652,-5.11
3.907358,-5.10
3.9079459999999995,-5.11
3.9081420000000002,-5.11
3.9080439999999994,-5.10
3.9081420000000002,-5.10
3.908436,-5.11
3.908436,-5.11
3.908436,-5.10
3.9086319999999994,-5.10
3.908926,-5.10
3.9092199999999995,-5.11
3.9097099999999996,-5.11
3.9097099999999996,-5.11
3.9098079999999995,-5.11
3.9101019999999997,-5.11
3.9102979999999996,-5.11
3.9105920000000003,-5.11
3.91118,-5.11
3.911278,-5.11
3.91118,-5.11
3.9115719999999996,-5.11
3.9119639999999998,-5.11
3.911866,-5.11
3.9119639999999998,-5.11
3.912356,-5.11
3.9129439999999995,-5.11
3.9132379999999998,-5.11
3.9140219999999997,-5.11
3.913728,-5.11
3.914316,-5.11
3.914806,-5.11
3.9152959999999997,-5.11
3.9147079999999996,-5.11
3.915492,-5.11
3.915688,-5.11
3.915492,-5.11
3.9159819999999996,-5.11
3.916374,-5.11
3.91608,-5.11
3.9165699999999997,-5.11
3.916276,-5.11
3.916668,-5.11
3.916864,-5.11
3.9171579999999997,-5.11
3.916864,-5.11
3.9171579999999997,-5.11
3.917256,-5.11
3.917354,-5.11
3.917256,-5.11
3.917354,-5.11
3.9177459999999997,-5.11
3.917942,-5.11
3.918236,-5.11
3.918138,-5.11
3.91804,-5.11
3.9178439999999997,-5.10
3.918138,-5.11
3.9183339999999998,-5.11
3.918236,-5.10
3.9183339999999998,-5.11
3.918922,-5.11
3.9184319999999997,-5.11
3.918824,-5.11
3.918628,-5.11
3.919216,-5.11
3.919706,-5.11
3.919314,-5.11
3.92,-5.11
3.919804,-5.11
3.92049,-5.11
3.920098,-5.11
3.919902,-5.11
3.920784,-5.11
3.920784,-5.11
3.921666,-5.11
3.92147,-5.11
3.921078,-5.11
3.921666,-5.11
3.921862,-5.11
3.922058,-5.11
3.922156,-5.11
3.922646,-5.11
3.92245,-5.11
3.922548,-5.11
3.923724,-5.11
3.923822,-5.11
3.9240180000000002,-5.11
3.923822,-5.11
3.9240180000000002,-5.11
3.924998,-5.11
3.92441,-5.11
3.92441,-5.11
3.9251939999999994,-5.11
3.924998,-5.11
3.924802,-5.11
3.924998,-5.11
3.92539,-5.11
3.925586,-5.11
3.9262719999999995,-5.11
3.9258800000000003,-5.11
3.926076,-5.11
3.9261739999999996,-5.11
3.9265660000000002,-5.11
3.9262719999999995,-5.11
3.9263699999999995,-5.11
3.9265660000000002,-5.11
3.9267619999999996,-5.11
3.9265660000000002,-5.11
3.9264680000000003,-5.11
3.9270560000000003,-5.11
3.9268599999999996,-5.11
3.9271540000000003,-5.11
3.9272519999999997,-5.11
3.9272519999999997,-5.11
3.9275459999999995,-5.11
3.9273499999999997,-5.11
3.9271540000000003,-5.11
3.9276439999999995,-5.11
3.9270560000000003,-5.11
3.9272519999999997,-5.11
3.9276439999999995,-5.11
3.9281339999999996,-5.11
3.92833,-5.11
3.9279379999999997,-5.10
3.9278399999999998,-5.11
3.9276439999999995,-5.11
3.9277420000000003,-5.11
3.9282319999999995,-5.11
3.9281339999999996,-5.11
3.9279379999999997,-5.11
3.9285259999999997,-5.11
3.9291139999999998,-5.11
3.9292119999999997,-5.11
3.9292119999999997,-5.11
3.9292119999999997,-5.11
3.9292119999999997,-5.11
3.9288199999999995,-5.11
3.9297999999999997,-5.11
3.929506,-5.11
3.9294079999999996,-5.11
3.93029,-5.11
3.9297999999999997,-5.11
3.93078,-5.11
3.9300939999999995,-5.11
3.9300939999999995,-5.11
3.9311719999999997,-5.11
3.9304859999999997,-5.11
3.931466,-5.11
3.9317599999999997,-5.11
3.931564,-5.11
3.931564,-5.11
3.931564,-5.11
3.932054,-5.11
3.9325439999999996,-5.11
3.9329359999999998,-5.11
3.9324459999999997,-5.11
3.933426,-5.11
3.9337199999999997,-5.11
3.9343079999999997,-5.11
3.933818,-5.11
3.934406,-5.11
3.934602,-5.11
3.9347,-5.11
3.934798,-5.11
3.935386,-5.11
3.935386,-5.11
3.935092,-5.11
3.935778,-5.11
3.93568,-5.11
3.93519,-5.11
3.935092,-5.11
3.9354839999999998,-5.11
3.935288,-5.11
3.935778,-5.11
3.935974,-5.11
3.93568,-5.11
3.935974,-5.11
3.936072,-5.11
3.935974,-5.11
3.935974,-5.11
3.9361699999999997,-5.11
3.936562,-5.11
3.9361699999999997,-5.11
3.936562,-5.11
3.936562,-5.11
3.936268,-5.11
3.936562,-5.11
3.9367579999999998,-5.11
3.936856,-5.11
3.937052,-5.11
3.936856,-5.11
3.93715,-5.11
3.936954,-5.11
3.93715,-5.11
3.93715,-5.11
3.9367579999999998,-5.11
3.93715,-5.11
3.9374439999999997,-5.11
3.937052,-5.11
3.9374439999999997,-5.11
3.937052,-5.11
3.937248,-5.11
3.937346,-5.11
3.937346,-5.11
3.937542,-5.11
3.937738,-5.11
3.937738,-5.11
3.93764,-5.11
3.937934,-5.11
3.904712,-0.57
3.903928,-0.57
3.903634,-0.57
3.903242,-0.57
3.90285,-0.57
3.902164,-0.57
3.901086,-0.57
3.901086,-0.57
3.8999099999999998,-0.56
3.899224,-0.56
3.899812,-0.56
3.899126,-0.56
3.8986359999999998,-0.56
3.8982439999999996,-0.56
3.8981459999999997,-0.56
3.8974599999999997,-0.56
3.897264,-0.56
3.897166,-0.56
3.89648,-0.56
3.896578,-0.56
3.8961859999999997,-0.56
3.8955979999999997,-0.55
3.8957939999999995,-0.56
3.895206,-0.55
3.895206,-0.55
3.8951079999999996,-0.55
3.8949119999999997,-0.55
3.894716,-0.55
3.8942259999999997,-0.55
3.8949119999999997,-0.55
3.8943239999999997,-0.55
