voltage(V),current(A)
3.853262,-0.47
3.850518,-0.47
3.851106,-0.47
3.850518,-0.47
3.8510079999999998,-0.47
3.888934,-5.08
3.890404,-5.09
3.8914819999999994,-5.10
3.8929519999999997,-5.10
3.8943239999999997,-5.10
3.8951079999999996,-5.10
3.8961859999999997,-5.10
3.8963819999999996,-5.10
3.8967739999999997,-5.10
3.897166,-5.10
3.897264,-5.10
3.89795,-5.10
3.89795,-5.10
3.8982439999999996,-5.10
3.89893,-5.10
3.89893,-5.10
3.899126,-5.10
3.899616,-5.10
3.899616,-5.10
3.90089,-5.11
3.9005959999999997,-5.11
3.901674,-5.11
3.902066,-5.11
3.902066,-5.11
3.902556,-5.11
3.903242,-5.11
3.904026,-5.11
3.905006,-5.11
3.905006,-5.11
3.905594,-5.11
3.905398,-5.11
3.905986,-5.11
3.906476,-5.11
3.9068680000000002,-5.11
3.906672,-5.11
3.906966,-5.11
3.907848,-5.11
3.907554,-5.11
3.907848,-5.11
3.9079459999999995,-5.11
3.9080439999999994,-5.11
3.9081420000000002,-5.11
3.908338,-5.11
3.90824,-5.10
3.908828,-5.11
3.908436,-5.11
3.9090239999999996,-5.11
3.9099060000000003,-5.11
3.9092199999999995,-5.11
3.9103959999999995,-5.11
3.9101999999999997,-5.11
3.9104939999999995,-5.11
3.9109839999999996,-5.11
3.9113759999999997,-5.11
3.9114739999999997,-5.11
3.912454,-5.11
3.912454,-5.11
3.912552,-5.11
3.9129439999999995,-5.11
3.9139239999999997,-5.11
3.9133359999999997,-5.11
3.9147079999999996,-5.11
3.9146099999999997,-5.11
3.914806,-5.11
3.915002,-5.11
3.91559,-5.11
3.91559,-5.11
3.9158839999999997,-5.11
3.9158839999999997,-5.11
3.916276,-5.11
3.916374,-5.11
3.9165699999999997,-5.11
3.916668,-5.11
3.916864,-5.11
3.917256,-5.11
3.917256,-5.11
3.9171579999999997,-5.11
3.917256,-5.11
3.9177459999999997,-5.11
3.9177459999999997,-5.11
3.918236,-5.11
3.91804,-5.11
3.9183339999999998,-5.11
3.918236,-5.11
3.91804,-5.11
3.918726,-5.11
3.918628,-5.11
3.91853,-5.11
3.918824,-5.11
3.918824,-5.11
3.918628,-5.11
3.919314,-5.11
3.91951,-5.11
3.920098,-5.11
3.920392,-5.11
3.92,-5.11
3.919902,-5.11
3.9208819999999998,-5.11
3.92098,-5.11
3.921078,-5.11
3.92098,-5.11
3.921568,-5.11
3.921568,-5.11
3.92245,-5.11
3.922352,-5.11
3.922744,-5.11
3.922842,-5.11
3.92343,-5.11
3.923136,-5.11
3.924214,-5.11
3.924214,-5.11
3.9246060000000003,-5.11
3.924704,-5.11
3.9250959999999995,-5.11
3.92539,-5.11
3.9252920000000002,-5.11
3.925978,-5.11
3.925488,-5.11
3.9261739999999996,-5.11
3.9257819999999994,-5.11
3.9261739999999996,-5.11
3.925978,-5.11
3.9265660000000002,-5.11
3.9264680000000003,-5.11
3.9264680000000003,-5.11
3.9269579999999995,-5.11
3.9262719999999995,-5.11
3.9268599999999996,-5.11
3.9269579999999995,-5.11
3.9271540000000003,-5.11
3.9269579999999995,-5.11
3.9275459999999995,-5.11
3.9274479999999996,-5.11
3.9277420000000003,-5.11
3.9281339999999996,-5.11
3.9275459999999995,-5.11
3.9277420000000003,-5.11
3.9279379999999997,-5.11
3.9277420000000003,-5.11
3.9279379999999997,-5.11
3.9278399999999998,-5.11
3.9280359999999996,-5.11
3.9278399999999998,-5.11
3.9288199999999995,-5.11
3.9288199999999995,-5.11
3.9286239999999997,-5.11
3.9288199999999995,-5.11
3.9285259999999997,-5.11
3.9288199999999995,-5.11
3.9292119999999997,-5.11
3.929604,-5.11
3.929604,-5.11
3.929506,-5.11
3.9298979999999997,-5.11
3.9299959999999996,-5.11
3.9299959999999996,-5.11
3.9303879999999998,-5.11
3.929702,-5.11
3.93078,-5.11
3.931466,-5.11
3.9312699999999996,-5.11
3.9312699999999996,-5.11
3.9317599999999997,-5.11
3.932054,-5.11
3.9325439999999996,-5.11
3.93274,-5.11
3.93274,-5.11
3.933426,-5.11
3.933818,-5.11
3.933818,-5.11
3.934112,-5.11
3.9347,-5.11
3.934112,-5.11
3.934798,-5.11
3.9347,-5.11
3.9348959999999997,-5.11
3.935288,-5.11
3.9354839999999998,-5.11
3.9349939999999997,-5.11
3.935386,-5.11
3.9354839999999998,-5.11
3.9354839999999998,-5.11
3.935876,-5.11
3.93568,-5.11
3.936366,-5.11
3.936366,-5.11
3.936072,-5.11
3.935974,-5.11
3.936268,-5.11
3.936464,-5.11
3.936856,-5.11
3.93666,-5.11
3.937052,-5.11
3.93715,-5.11
3.936954,-5.11
3.937248,-5.11
3.937052,-5.11
3.937346,-5.11
3.937052,-5.11
3.937248,-5.11
3.937542,-5.11
3.937052,-5.11
3.937542,-5.11
3.9374439999999997,-5.11
3.937836,-5.11
3.937346,-5.11
3.937542,-5.11
3.93813,-5.11
3.9380319999999998,-5.11
3.937934,-5.11
3.938424,-5.11
3.937836,-5.11
3.937934,-5.11
3.938424,-5.11
3.938522,-5.11
3.938228,-5.11
3.938816,-5.11
3.938816,-5.11
3.939404,-5.11
3.939404,-5.11
3.938914,-5.11
3.939306,-5.11
3.939404,-5.11
3.939208,-5.11
3.939502,-5.11
3.939894,-5.11
3.939698,-5.11
3.940188,-5.11
3.939894,-5.11
3.940384,-5.11
3.940384,-5.11
3.941364,-5.11
3.940384,-5.11
3.940874,-5.11
3.94107,-5.11
3.940776,-5.11
3.941364,-5.11
3.941462,-5.11
3.94205,-5.11
3.941952,-5.11
3.94205,-5.11
3.94205,-5.11
3.9424420000000002,-5.11
3.94254,-5.11
3.942638,-5.11
3.9429319999999994,-5.11
3.942736,-5.11
3.942638,-5.11
3.943128,-5.11
3.9436180000000003,-5.11
3.9435199999999995,-5.11
3.943814,-5.11
3.9434219999999995,-5.11
3.943814,-5.11
3.9443040000000003,-5.11
3.9445979999999996,-5.11
3.9445979999999996,-5.11
3.9445979999999996,-5.11
3.9448920000000003,-5.11
3.9451859999999996,-5.11
3.9449899999999998,-5.11
3.9449899999999998,-5.11
3.9450879999999997,-5.11
3.9453819999999995,-5.11
3.9452839999999996,-5.11
3.9453819999999995,-5.11
3.9456759999999997,-5.11
3.94548,-5.11
3.9453819999999995,-5.11
3.9086319999999994,-0.58
3.907162,-0.58
3.90628,-0.57
3.905104,-0.57
3.905202,-0.57
3.904908,-0.57
3.905006,-0.57
3.90432,-0.57
3.9037319999999998,-0.57
3.903536,-0.57
3.903536,-0.57
3.90285,-0.57
3.902654,-0.57
3.902066,-0.57
3.901968,-0.57
3.901968,-0.57
3.901086,-0.57
3.900792,-0.56
3.9004,-0.56
3.900302,-0.56
3.899616,-0.56
3.8994199999999997,-0.56
3.899224,-0.56
3.899224,-0.56
3.8981459999999997,-0.56
3.89844,-0.56
3.8974599999999997,-0.56
3.8974599999999997,-0.56
3.8975579999999996,-0.56
3.897166,-0.56
3.8969699999999996,-0.56
