voltage(V),current(A)
3.854732,-0.48
3.850812,-0.47
3.850812,-0.47
3.850812,-0.47
3.850518,-0.47
3.885896,-5.08
3.887072,-5.10
3.887856,-5.10
3.88815,-5.10
3.888738,-5.10
3.88913,-5.10
3.889424,-5.10
3.8897180000000002,-5.10
3.891188,-5.11
3.890404,-5.10
3.8920699999999995,-5.11
3.8924619999999996,-5.10
3.8943239999999997,-5.11
3.8944219999999996,-5.11
3.895206,-5.11
3.8957939999999995,-5.11
3.8962839999999996,-5.11
3.89648,-5.11
3.896578,-5.11
3.8969699999999996,-5.11
3.8973619999999998,-5.11
3.897264,-5.11
3.8974599999999997,-5.11
3.8980479999999997,-5.11
3.8980479999999997,-5.11
3.898538,-5.11
3.898342,-5.11
3.8986359999999998,-5.11
3.899028,-5.11
3.899126,-5.11
3.8994199999999997,-5.11
3.899714,-5.11
3.9005959999999997,-5.11
3.900302,-5.11
3.901478,-5.11
3.901478,-5.11
3.901772,-5.11
3.901968,-5.11
3.902556,-5.11
3.903242,-5.11
3.903536,-5.11
3.903928,-5.11
3.904026,-5.11
3.904614,-5.11
3.905104,-5.11
3.905398,-5.11
3.905202,-5.11
3.905888,-5.11
3.90579,-5.11
3.906182,-5.11
3.906476,-5.11
3.9068680000000002,-5.11
3.907064,-5.11
3.907064,-5.11
3.907162,-5.11
3.907358,-5.11
3.90726,-5.11
3.9079459999999995,-5.11
3.9080439999999994,-5.11
3.90775,-5.11
3.908338,-5.11
3.908338,-5.11
3.908436,-5.11
3.908828,-5.11
3.9087300000000003,-5.11
3.908436,-5.11
3.9093180000000003,-5.11
3.908828,-5.11
3.9094160000000002,-5.11
3.9097099999999996,-5.11
3.9100040000000003,-5.11
3.9101999999999997,-5.11
3.9104939999999995,-5.11
3.9103959999999995,-5.11
3.9113759999999997,-5.11
3.9113759999999997,-5.11
3.9116699999999995,-5.11
3.9121599999999996,-5.11
3.912356,-5.11
3.912454,-5.11
3.913042,-5.11
3.913042,-5.11
3.91363,-5.11
3.9140219999999997,-5.11
3.9145119999999998,-5.11
3.9147079999999996,-5.11
3.915002,-5.11
3.9153939999999996,-5.11
3.9152959999999997,-5.11
3.915688,-5.11
3.9157859999999998,-5.11
3.916178,-5.11
3.916276,-5.11
3.916374,-5.11
3.916668,-5.11
3.916864,-5.11
3.916864,-5.11
3.9165699999999997,-5.11
3.9171579999999997,-5.11
3.9171579999999997,-5.11
3.916864,-5.11
3.917452,-5.11
3.917354,-5.11
3.91755,-5.11
3.917452,-5.11
3.91755,-5.11
3.9177459999999997,-5.11
3.91804,-5.11
3.917942,-5.11
3.917942,-5.11
3.918236,-5.11
3.9184319999999997,-5.11
3.917942,-5.11
3.9184319999999997,-5.11
3.91853,-5.11
3.918628,-5.11
3.918726,-5.11
3.9190199999999997,-5.11
3.9190199999999997,-5.11
3.919412,-5.11
3.918922,-5.11
3.919804,-5.11
3.919902,-5.11
3.920196,-5.11
3.919804,-5.11
3.920784,-5.11
3.920392,-5.11
3.920686,-5.11
3.920588,-5.11
3.921372,-5.11
3.92098,-5.11
3.921568,-5.11
3.921568,-5.11
3.922058,-5.11
3.922352,-5.11
3.922156,-5.11
3.922744,-5.11
3.923038,-5.11
3.92343,-5.11
3.923136,-5.11
3.923332,-5.11
3.9240180000000002,-5.11
3.923626,-5.11
3.924116,-5.11
3.924312,-5.11
3.924802,-5.11
3.9249,-5.11
3.924802,-5.11
3.9252920000000002,-5.11
3.925586,-5.11
3.925586,-5.11
3.9256839999999995,-5.12
3.9257819999999994,-5.11
3.9261739999999996,-5.11
3.925978,-5.11
3.9262719999999995,-5.11
3.9263699999999995,-5.11
3.9262719999999995,-5.11
3.9262719999999995,-5.11
3.9267619999999996,-5.11
3.9269579999999995,-5.11
3.9264680000000003,-5.11
3.926664,-5.11
3.9269579999999995,-5.11
3.9268599999999996,-5.11
3.9271540000000003,-5.11
3.9271540000000003,-5.11
3.9273499999999997,-5.11
3.9269579999999995,-5.11
3.9276439999999995,-5.11
3.9274479999999996,-5.11
3.9279379999999997,-5.11
3.9279379999999997,-5.11
3.9276439999999995,-5.11
3.9279379999999997,-5.11
3.9281339999999996,-5.11
3.9281339999999996,-5.11
3.9282319999999995,-5.11
3.92833,-5.11
3.9277420000000003,-5.11
3.9281339999999996,-5.11
3.9286239999999997,-5.11
3.9282319999999995,-5.11
3.9287219999999996,-5.11
3.9287219999999996,-5.11
3.929016,-5.11
3.9292119999999997,-5.11
3.929016,-5.11
3.929016,-5.11
3.9292119999999997,-5.11
3.9292119999999997,-5.11
3.930192,-5.11
3.9293099999999996,-5.11
3.9299959999999996,-5.11
3.9298979999999997,-5.11
3.929506,-5.11
3.9304859999999997,-5.11
3.9305839999999996,-5.11
3.930878,-5.11
3.9304859999999997,-5.11
3.9311719999999997,-5.11
3.9310739999999997,-5.11
3.9310739999999997,-5.11
3.9316619999999998,-5.11
3.9323479999999997,-5.11
3.9324459999999997,-5.11
3.93274,-5.11
3.9325439999999996,-5.11
3.9325439999999996,-5.11
3.9330339999999997,-5.11
3.9330339999999997,-5.11
3.9331319999999996,-5.11
3.933328,-5.11
3.933818,-5.11
3.9343079999999997,-5.11
3.9343079999999997,-5.11
3.934798,-5.11
3.934406,-5.11
3.9347,-5.11
3.9347,-5.11
3.935092,-5.11
3.9354839999999998,-5.11
3.93519,-5.11
3.935288,-5.11
3.935386,-5.11
3.9354839999999998,-5.11
3.935876,-5.11
3.935778,-5.11
3.9355819999999997,-5.11
3.9355819999999997,-5.11
3.93568,-5.11
3.93568,-5.11
3.935974,-5.11
3.936366,-5.11
3.936072,-5.11
3.9361699999999997,-5.11
3.935974,-5.11
3.936268,-5.11
3.93666,-5.11
3.93666,-5.11
3.936562,-5.11
3.93666,-5.11
3.936562,-5.11
3.9367579999999998,-5.11
3.937052,-5.11
3.9367579999999998,-5.11
3.936856,-5.11
3.937052,-5.11
3.936856,-5.11
3.937542,-5.11
3.937052,-5.11
3.937248,-5.11
3.937248,-5.11
3.937836,-5.11
3.9374439999999997,-5.11
3.937346,-5.11
3.93764,-5.11
3.937346,-5.11
3.937738,-5.11
3.937738,-5.11
3.937934,-5.11
3.9380319999999998,-5.11
3.93813,-5.11
3.9380319999999998,-5.11
3.9380319999999998,-5.11
3.938522,-5.11
3.93813,-5.11
3.93813,-5.11
3.938326,-5.11
3.906378,-0.58
3.905496,-0.57
3.90432,-0.57
3.90432,-0.57
3.903928,-0.57
3.9037319999999998,-0.57
3.90334,-0.57
3.902948,-0.57
3.90285,-0.57
3.902262,-0.57
3.902066,-0.57
3.901086,-0.57
3.901086,-0.57
3.9005959999999997,-0.56
3.900302,-0.56
3.899812,-0.56
3.899714,-0.56
3.89893,-0.56
3.8986359999999998,-0.56
3.897656,-0.56
3.8980479999999997,-0.56
3.8969699999999996,-0.56
3.8974599999999997,-0.56
3.8962839999999996,-0.56
3.8973619999999998,-0.56
3.8963819999999996,-0.56
3.8961859999999997,-0.56
3.8960879999999998,-0.56
3.895892,-0.56
3.8957939999999995,-0.56
3.895402,-0.55
