voltage(V),current(A)
3.85483,-0.48
3.852674,-0.47
3.851988,-0.47
3.852576,-0.47
3.8522819999999998,-0.47
3.8857,-5.07
3.88717,-5.10
3.887562,-5.10
3.88815,-5.10
3.88864,-5.10
3.889032,-5.10
3.889424,-5.10
3.88962,-5.10
3.8903060000000003,-5.10
3.8906,-5.10
3.891776,-5.10
3.892364,-5.10
3.8939319999999995,-5.10
3.89403,-5.10
3.894618,-5.10
3.895206,-5.10
3.8961859999999997,-5.10
3.8963819999999996,-5.10
3.8962839999999996,-5.10
3.8967739999999997,-5.10
3.8967739999999997,-5.10
3.897166,-5.10
3.897264,-5.10
3.897754,-5.10
3.897852,-5.10
3.897852,-5.10
3.8980479999999997,-5.10
3.898342,-5.10
3.89844,-5.10
3.8988319999999996,-5.10
3.89893,-5.10
3.899224,-5.10
3.8994199999999997,-5.10
3.8994199999999997,-5.10
3.899518,-5.11
3.899616,-5.11
3.899812,-5.10
3.9004,-5.11
3.900792,-5.11
3.90089,-5.11
3.900988,-5.11
3.9018699999999997,-5.11
3.90236,-5.11
3.9024579999999998,-5.11
3.902752,-5.11
3.9037319999999998,-5.11
3.903536,-5.11
3.904418,-5.11
3.905006,-5.11
3.904908,-5.11
3.9053,-5.11
3.90579,-5.11
3.905398,-5.11
3.906476,-5.11
3.906084,-5.11
3.906378,-5.11
3.906672,-5.11
3.9068680000000002,-5.11
3.907064,-5.11
3.90726,-5.11
3.907064,-5.11
3.90775,-5.11
3.9074560000000003,-5.10
3.907848,-5.11
3.9079459999999995,-5.11
3.9079459999999995,-5.11
3.90775,-5.10
3.90824,-5.10
3.908436,-5.11
3.90824,-5.11
3.9086319999999994,-5.11
3.9087300000000003,-5.10
3.9090239999999996,-5.11
3.9090239999999996,-5.11
3.9098079999999995,-5.11
3.9099060000000003,-5.11
3.9101019999999997,-5.11
3.9105920000000003,-5.11
3.9102979999999996,-5.11
3.9103959999999995,-5.11
3.9105920000000003,-5.11
3.91118,-5.11
3.9109839999999996,-5.11
3.9121599999999996,-5.11
3.9120619999999997,-5.11
3.9129439999999995,-5.11
3.9129439999999995,-5.11
3.9128459999999996,-5.11
3.9132379999999998,-5.11
3.9139239999999997,-5.11
3.9140219999999997,-5.11
3.914806,-5.11
3.9145119999999998,-5.11
3.915002,-5.11
3.914806,-5.11
3.915492,-5.11
3.9153939999999996,-5.11
3.9158839999999997,-5.11
3.916178,-5.11
3.91608,-5.11
3.916178,-5.11
3.9165699999999997,-5.11
3.9165699999999997,-5.11
3.916374,-5.11
3.916766,-5.11
3.916668,-5.11
3.917256,-5.11
3.9171579999999997,-5.11
3.9171579999999997,-5.11
3.9171579999999997,-5.11
3.91755,-5.11
3.917354,-5.11
3.917648,-5.11
3.9178439999999997,-5.11
3.917942,-5.11
3.9178439999999997,-5.11
3.918236,-5.11
3.9178439999999997,-5.11
3.91804,-5.11
3.9184319999999997,-5.11
3.9177459999999997,-5.11
3.91853,-5.11
3.91853,-5.11
3.918628,-5.11
3.918628,-5.11
3.918726,-5.11
3.918824,-5.11
3.918726,-5.11
3.918922,-5.11
3.919314,-5.11
3.919804,-5.11
3.919706,-5.11
3.919804,-5.11
3.919706,-5.11
3.9202939999999997,-5.11
3.920392,-5.11
3.92098,-5.11
3.92098,-5.11
3.921078,-5.11
3.921176,-5.11
3.921666,-5.11
3.921666,-5.11
3.921666,-5.11
3.922058,-5.11
3.921666,-5.11
3.92196,-5.11
3.922744,-5.11
3.922646,-5.11
3.923626,-5.11
3.923332,-5.11
3.923724,-5.11
3.9240180000000002,-5.11
3.924508,-5.11
3.924214,-5.11
3.924998,-5.11
3.9246060000000003,-5.11
3.9250959999999995,-5.11
3.9252920000000002,-5.11
3.925488,-5.11
3.925488,-5.11
3.9257819999999994,-5.11
3.9258800000000003,-5.11
3.925586,-5.11
3.9257819999999994,-5.11
3.926076,-5.11
3.9265660000000002,-5.11
3.9262719999999995,-5.11
3.9265660000000002,-5.11
3.926664,-5.11
3.926664,-5.11
3.9264680000000003,-5.11
3.9267619999999996,-5.11
3.9268599999999996,-5.11
3.9269579999999995,-5.11
3.9270560000000003,-5.11
3.9270560000000003,-5.11
3.9270560000000003,-5.11
3.9271540000000003,-5.11
3.9273499999999997,-5.11
3.9273499999999997,-5.11
3.9270560000000003,-5.11
3.9273499999999997,-5.11
3.9270560000000003,-5.11
3.9275459999999995,-5.11
3.9275459999999995,-5.11
3.9274479999999996,-5.11
3.9277420000000003,-5.11
3.9276439999999995,-5.11
3.9276439999999995,-5.11
3.9282319999999995,-5.11
3.9282319999999995,-5.11
3.9281339999999996,-5.11
3.9286239999999997,-5.11
3.9286239999999997,-5.11
3.928428,-5.11
3.928918,-5.11
3.9287219999999996,-5.11
3.928918,-5.11
3.9287219999999996,-5.11
3.929016,-5.11
3.9291139999999998,-5.11
3.929506,-5.11
3.9291139999999998,-5.11
3.9297999999999997,-5.11
3.9292119999999997,-5.11
3.929604,-5.11
3.9299959999999996,-5.11
3.9299959999999996,-5.11
3.9298979999999997,-5.11
3.9306819999999996,-5.11
3.9299959999999996,-5.11
3.9306819999999996,-5.11
3.93078,-5.11
3.930976,-5.11
3.9312699999999996,-5.11
3.9317599999999997,-5.11
3.931368,-5.11
3.9316619999999998,-5.11
3.9318579999999996,-5.11
3.932054,-5.11
3.9323479999999997,-5.11
3.932642,-5.11
3.93323,-5.11
3.932838,-5.11
3.9331319999999996,-5.11
3.9330339999999997,-5.11
3.93323,-5.11
3.933916,-5.11
3.933328,-5.11
3.934112,-5.11
3.934406,-5.11
3.9347,-5.11
3.934504,-5.11
3.9347,-5.11
3.9342099999999998,-5.11
3.9348959999999997,-5.11
3.935092,-5.11
3.9349939999999997,-5.11
3.93519,-5.11
3.935288,-5.11
3.9354839999999998,-5.11
3.9354839999999998,-5.11
3.935386,-5.11
3.935386,-5.11
3.935778,-5.11
3.935386,-5.11
3.936268,-5.11
3.935778,-5.11
3.936366,-5.11
3.936268,-5.11
3.936072,-5.11
3.936268,-5.11
3.936268,-5.11
3.936464,-5.11
3.936464,-5.11
3.93666,-5.11
3.9367579999999998,-5.11
3.9367579999999998,-5.11
3.936856,-5.11
3.936366,-5.11
3.936954,-5.11
3.936856,-5.11
3.936954,-5.11
3.936954,-5.11
3.936954,-5.11
3.937052,-5.11
3.937052,-5.11
3.937248,-5.11
3.937346,-5.11
3.905594,-0.57
3.904908,-0.57
3.904516,-0.57
3.904222,-0.57
3.903536,-0.57
3.9031439999999997,-0.57
3.902752,-0.57
3.9024579999999998,-0.57
3.902556,-0.57
3.901772,-0.57
3.9018699999999997,-0.57
3.900792,-0.56
3.9005959999999997,-0.56
3.8994199999999997,-0.56
3.89893,-0.56
3.899224,-0.56
3.8982439999999996,-0.56
3.8981459999999997,-0.56
3.8981459999999997,-0.56
3.8974599999999997,-0.56
3.8975579999999996,-0.56
3.8974599999999997,-0.56
3.896676,-0.56
3.8961859999999997,-0.56
3.8957939999999995,-0.56
3.8955979999999997,-0.55
3.89599,-0.56
3.8955979999999997,-0.55
3.895402,-0.55
3.8951079999999996,-0.55
3.8950099999999996,-0.55
