voltage(V),current(A)
3.84993,-0.47
3.8472839999999997,-0.46
3.8472839999999997,-0.46
3.8471859999999998,-0.46
3.8466959999999997,-0.46
3.881976,-5.08
3.884328,-5.10
3.885798,-5.10
3.8865819999999998,-5.10
3.88717,-5.10
3.88717,-5.10
3.887856,-5.10
3.888248,-5.10
3.888542,-5.10
3.889326,-5.10
3.889522,-5.10
3.8897180000000002,-5.10
3.89011,-5.10
3.890698,-5.10
3.8914819999999994,-5.10
3.8918739999999996,-5.10
3.8931479999999996,-5.10
3.8934420000000003,-5.11
3.8939319999999995,-5.11
3.8945199999999995,-5.11
3.895304,-5.11
3.895892,-5.11
3.8961859999999997,-5.11
3.8962839999999996,-5.11
3.8969699999999996,-5.11
3.897068,-5.11
3.897656,-5.11
3.8974599999999997,-5.11
3.897754,-5.11
3.89795,-5.11
3.8980479999999997,-5.10
3.8980479999999997,-5.10
3.8982439999999996,-5.10
3.898538,-5.11
3.8993219999999997,-5.11
3.8994199999999997,-5.11
3.899616,-5.11
3.9000079999999997,-5.11
3.8994199999999997,-5.10
3.9000079999999997,-5.11
3.9006939999999997,-5.11
3.901086,-5.11
3.901478,-5.11
3.9018699999999997,-5.11
3.902262,-5.11
3.902654,-5.11
3.90285,-5.11
3.903438,-5.11
3.903928,-5.11
3.904222,-5.11
3.904516,-5.11
3.904712,-5.11
3.905594,-5.11
3.905888,-5.11
3.90579,-5.11
3.906378,-5.11
3.9068680000000002,-5.11
3.906966,-5.11
3.906966,-5.11
3.906966,-5.11
3.9068680000000002,-5.11
3.9074560000000003,-5.11
3.90726,-5.11
3.907652,-5.11
3.9079459999999995,-5.11
3.907652,-5.11
3.9081420000000002,-5.11
3.90824,-5.11
3.9085339999999995,-5.11
3.908436,-5.11
3.908338,-5.10
3.9085339999999995,-5.11
3.908828,-5.11
3.9094160000000002,-5.11
3.9091219999999995,-5.11
3.909514,-5.11
3.9099060000000003,-5.11
3.9098079999999995,-5.11
3.9102979999999996,-5.11
3.9104939999999995,-5.11
3.9105920000000003,-5.11
3.911866,-5.11
3.9113759999999997,-5.11
3.911866,-5.11
3.912356,-5.11
3.9128459999999996,-5.11
3.9128459999999996,-5.11
3.9134339999999996,-5.11
3.91363,-5.11
3.913826,-5.11
3.9140219999999997,-5.11
3.9147079999999996,-5.11
3.914806,-5.11
3.9151979999999997,-5.11
3.9153939999999996,-5.11
3.9158839999999997,-5.11
3.915492,-5.11
3.9159819999999996,-5.11
3.91608,-5.11
3.916276,-5.11
3.916276,-5.11
3.916374,-5.11
3.916668,-5.11
3.9165699999999997,-5.11
3.916962,-5.11
3.916766,-5.11
3.917256,-5.11
3.917354,-5.11
3.917256,-5.11
3.91755,-5.11
3.917648,-5.11
3.91755,-5.11
3.9178439999999997,-5.11
3.917942,-5.11
3.918236,-5.11
3.918138,-5.11
3.918138,-5.11
3.918236,-5.11
3.918138,-5.11
3.9184319999999997,-5.11
3.918628,-5.11
3.9184319999999997,-5.11
3.918726,-5.11
3.918922,-5.11
3.919314,-5.11
3.919216,-5.11
3.919314,-5.11
3.919706,-5.11
3.91951,-5.11
3.92,-5.11
3.920196,-5.11
3.92049,-5.11
3.92049,-5.11
3.920784,-5.11
3.920784,-5.11
3.9208819999999998,-5.11
3.921372,-5.11
3.921372,-5.11
3.921862,-5.11
3.922058,-5.11
3.922156,-5.11
3.922352,-5.11
3.922548,-5.11
3.922548,-5.11
3.923038,-5.11
3.923136,-5.11
3.923626,-5.11
3.923822,-5.11
3.9240180000000002,-5.11
3.924312,-5.11
3.924802,-5.11
3.92441,-5.11
3.924802,-5.11
3.9251939999999994,-5.11
3.92539,-5.11
3.925586,-5.11
3.9257819999999994,-5.11
3.925586,-5.11
3.9258800000000003,-5.11
3.925978,-5.11
3.9258800000000003,-5.11
3.925978,-5.11
3.926664,-5.11
3.9263699999999995,-5.11
3.9265660000000002,-5.11
3.9265660000000002,-5.11
3.9268599999999996,-5.11
3.9270560000000003,-5.11
3.9273499999999997,-5.11
3.9270560000000003,-5.11
3.9276439999999995,-5.11
3.9272519999999997,-5.11
3.9273499999999997,-5.11
3.9275459999999995,-5.11
3.9276439999999995,-5.11
3.9275459999999995,-5.11
3.9275459999999995,-5.11
3.9280359999999996,-5.11
3.9279379999999997,-5.11
3.9277420000000003,-5.11
3.9276439999999995,-5.11
3.9277420000000003,-5.11
3.9280359999999996,-5.11
3.9282319999999995,-5.11
3.928428,-5.11
3.92833,-5.11
3.9280359999999996,-5.11
3.928428,-5.11
3.9287219999999996,-5.11
3.9286239999999997,-5.11
3.9291139999999998,-5.11
3.9288199999999995,-5.11
3.9287219999999996,-5.11
3.9293099999999996,-5.11
3.929016,-5.11
3.9287219999999996,-5.11
3.9293099999999996,-5.11
3.9298979999999997,-5.11
3.9297999999999997,-5.11
3.9297999999999997,-5.11
3.930192,-5.11
3.9306819999999996,-5.11
3.9310739999999997,-5.11
3.9311719999999997,-5.11
3.931368,-5.11
3.93078,-5.11
3.931466,-5.11
3.932054,-5.11
3.931956,-5.11
3.932054,-5.11
3.9329359999999998,-5.11
3.9324459999999997,-5.11
3.9331319999999996,-5.11
3.93323,-5.11
3.9337199999999997,-5.11
3.9337199999999997,-5.11
3.9342099999999998,-5.11
3.9343079999999997,-5.11
3.9343079999999997,-5.11
3.934602,-5.11
3.934798,-5.11
3.934798,-5.11
3.9349939999999997,-5.11
3.93519,-5.11
3.9349939999999997,-5.11
3.9348959999999997,-5.11
3.935386,-5.11
3.935386,-5.11
3.93568,-5.11
3.935092,-5.11
3.935974,-5.11
3.935974,-5.11
3.935778,-5.11
3.936366,-5.11
3.935876,-5.11
3.936268,-5.11
3.936072,-5.11
3.936366,-5.11
3.936366,-5.11
3.936856,-5.11
3.93666,-5.11
3.936464,-5.11
3.937052,-5.11
3.936562,-5.11
3.936954,-5.11
3.936856,-5.11
3.937248,-5.11
3.936856,-5.11
3.937052,-5.11
3.936954,-5.11
3.937346,-5.11
3.9374439999999997,-5.11
3.936954,-5.11
3.937738,-5.11
3.9374439999999997,-5.11
3.937542,-5.11
3.937738,-5.11
3.93764,-5.11
3.937542,-5.11
3.9380319999999998,-5.11
3.937934,-5.11
3.93813,-5.11
3.937542,-5.11
3.937836,-5.11
3.938228,-5.11
3.9380319999999998,-5.11
3.938326,-5.11
3.938424,-5.11
3.938718,-5.11
3.905594,-0.57
3.905398,-0.57
3.904614,-0.57
3.903928,-0.57
3.903928,-0.57
3.903536,-0.57
3.902752,-0.57
3.902556,-0.57
3.9024579999999998,-0.57
3.9018699999999997,-0.57
3.900988,-0.56
3.90089,-0.56
3.900302,-0.56
3.899714,-0.56
3.899028,-0.56
3.89893,-0.56
3.89795,-0.56
3.89795,-0.56
3.897656,-0.56
3.8974599999999997,-0.56
3.8968719999999997,-0.56
3.896578,-0.56
3.8963819999999996,-0.56
3.8963819999999996,-0.56
3.8956959999999996,-0.55
3.89599,-0.56
3.895304,-0.55
3.8956959999999996,-0.55
3.895402,-0.55
3.8951079999999996,-0.55
3.8949119999999997,-0.55
