voltage(V),current(A)
3.852772,-0.47
3.849342,-0.47
3.849538,-0.47
3.848656,-0.47
3.848264,-0.46
3.884916,-5.08
3.886974,-5.10
3.887366,-5.10
3.88815,-5.10
3.888542,-5.10
3.88913,-5.10
3.888934,-5.10
3.889326,-5.10
3.889522,-5.10
3.890404,-5.10
3.8907959999999995,-5.10
3.891776,-5.10
3.8929519999999997,-5.11
3.8936379999999997,-5.11
3.89403,-5.11
3.894716,-5.11
3.8956959999999996,-5.11
3.895892,-5.11
3.8968719999999997,-5.11
3.8967739999999997,-5.11
3.8968719999999997,-5.11
3.897166,-5.11
3.897656,-5.11
3.897656,-5.11
3.8980479999999997,-5.11
3.897852,-5.11
3.898342,-5.11
3.8986359999999998,-5.11
3.8988319999999996,-5.11
3.8988319999999996,-5.11
3.899126,-5.11
3.8999099999999998,-5.11
3.899518,-5.11
3.900106,-5.11
3.900498,-5.11
3.9005959999999997,-5.11
3.901674,-5.11
3.9018699999999997,-5.11
3.901968,-5.11
3.902164,-5.11
3.90285,-5.11
3.903046,-5.11
3.903536,-5.11
3.904418,-5.11
3.904516,-5.11
3.905202,-5.11
3.90579,-5.11
3.906084,-5.11
3.905986,-5.11
3.90628,-5.11
3.906476,-5.11
3.90677,-5.11
3.906966,-5.11
3.906966,-5.11
3.907064,-5.11
3.907358,-5.11
3.9074560000000003,-5.11
3.907358,-5.11
3.907554,-5.11
3.90775,-5.11
3.9080439999999994,-5.11
3.9080439999999994,-5.11
3.908338,-5.11
3.9079459999999995,-5.11
3.908828,-5.11
3.908926,-5.11
3.9086319999999994,-5.11
3.908828,-5.11
3.9094160000000002,-5.11
3.9099060000000003,-5.11
3.909514,-5.11
3.9098079999999995,-5.11
3.9105920000000003,-5.11
3.9105920000000003,-5.11
3.9107879999999997,-5.11
3.91118,-5.11
3.9116699999999995,-5.11
3.9114739999999997,-5.11
3.9120619999999997,-5.11
3.9128459999999996,-5.11
3.912454,-5.11
3.9127479999999997,-5.11
3.913042,-5.11
3.9139239999999997,-5.11
3.9140219999999997,-5.11
3.913826,-5.11
3.914806,-5.11
3.914904,-5.11
3.915002,-5.11
3.915002,-5.11
3.9157859999999998,-5.11
3.915688,-5.11
3.9159819999999996,-5.11
3.9159819999999996,-5.11
3.916374,-5.11
3.916374,-5.11
3.916374,-5.11
3.916668,-5.11
3.916668,-5.11
3.916962,-5.11
3.916864,-5.11
3.917452,-5.11
3.917256,-5.11
3.917648,-5.11
3.91755,-5.11
3.917648,-5.11
3.91755,-5.11
3.917942,-5.11
3.9178439999999997,-5.11
3.918236,-5.11
3.918236,-5.11
3.9178439999999997,-5.11
3.918236,-5.11
3.918922,-5.11
3.9184319999999997,-5.11
3.918726,-5.11
3.918628,-5.11
3.918726,-5.11
3.918628,-5.11
3.918922,-5.11
3.9190199999999997,-5.11
3.919118,-5.11
3.919902,-5.11
3.919314,-5.11
3.919706,-5.11
3.9202939999999997,-5.11
3.9202939999999997,-5.11
3.92049,-5.11
3.920588,-5.11
3.921176,-5.11
3.921176,-5.11
3.921862,-5.11
3.92147,-5.11
3.922156,-5.11
3.92196,-5.11
3.922254,-5.11
3.922744,-5.11
3.922744,-5.11
3.923136,-5.11
3.923332,-5.11
3.923234,-5.11
3.923724,-5.11
3.924116,-5.11
3.923528,-5.11
3.924214,-5.11
3.92441,-5.11
3.924214,-5.11
3.9251939999999994,-5.11
3.9250959999999995,-5.11
3.9256839999999995,-5.11
3.92539,-5.11
3.9257819999999994,-5.11
3.92539,-5.11
3.925586,-5.11
3.9262719999999995,-5.11
3.925978,-5.11
3.9262719999999995,-5.11
3.9262719999999995,-5.11
3.9262719999999995,-5.11
3.9265660000000002,-5.11
3.9265660000000002,-5.11
3.9267619999999996,-5.11
3.9265660000000002,-5.11
3.9270560000000003,-5.11
3.9268599999999996,-5.11
3.9274479999999996,-5.11
3.9268599999999996,-5.11
3.9268599999999996,-5.11
3.9272519999999997,-5.11
3.9271540000000003,-5.11
3.9273499999999997,-5.11
3.9274479999999996,-5.11
3.9275459999999995,-5.11
3.9278399999999998,-5.11
3.9279379999999997,-5.11
3.9278399999999998,-5.11
3.9281339999999996,-5.11
3.9280359999999996,-5.11
3.9278399999999998,-5.11
3.9282319999999995,-5.11
3.9281339999999996,-5.11
3.9279379999999997,-5.11
3.92833,-5.11
3.9287219999999996,-5.11
3.9286239999999997,-5.11
3.9288199999999995,-5.11
3.9287219999999996,-5.11
3.928918,-5.11
3.9287219999999996,-5.11
3.928918,-5.11
3.9292119999999997,-5.11
3.929016,-5.11
3.929604,-5.11
3.9294079999999996,-5.11
3.929604,-5.11
3.9298979999999997,-5.11
3.9299959999999996,-5.11
3.929604,-5.11
3.930878,-5.11
3.93029,-5.11
3.931368,-5.11
3.930976,-5.11
3.9310739999999997,-5.11
3.931466,-5.11
3.93078,-5.11
3.9317599999999997,-5.11
3.9323479999999997,-5.11
3.9317599999999997,-5.11
3.9324459999999997,-5.11
3.9325439999999996,-5.11
3.933328,-5.11
3.93323,-5.11
3.9331319999999996,-5.11
3.9337199999999997,-5.11
3.933916,-5.11
3.934112,-5.11
3.934014,-5.11
3.933916,-5.11
3.9348959999999997,-5.11
3.934602,-5.11
3.934602,-5.11
3.9347,-5.11
3.9347,-5.11
3.9355819999999997,-5.11
3.934602,-5.11
3.935288,-5.11
3.9354839999999998,-5.11
3.9354839999999998,-5.11
3.935386,-5.11
3.935974,-5.11
3.93568,-5.11
3.935876,-5.11
3.9355819999999997,-5.11
3.936072,-5.11
3.9361699999999997,-5.11
3.935778,-5.11
3.936562,-5.11
3.936072,-5.11
3.93666,-5.11
3.936268,-5.11
3.936562,-5.11
3.936562,-5.11
3.9367579999999998,-5.11
3.93666,-5.11
3.936954,-5.11
3.93666,-5.11
3.936856,-5.11
3.936954,-5.11
3.937346,-5.11
3.936954,-5.11
3.937052,-5.11
3.9374439999999997,-5.11
3.937346,-5.11
3.937542,-5.11
3.937248,-5.11
3.937542,-5.11
3.937738,-5.11
3.9374439999999997,-5.11
3.93764,-5.11
3.93764,-5.11
3.93764,-5.11
3.937934,-5.11
3.9380319999999998,-5.11
3.937836,-5.11
3.938228,-5.11
3.9380319999999998,-5.11
3.9380319999999998,-5.11
3.9380319999999998,-5.11
3.9380319999999998,-5.11
3.905496,-0.57
3.905006,-0.57
3.904124,-0.57
3.903634,-0.57
3.903438,-0.57
3.902752,-0.57
3.902164,-0.57
3.901772,-0.57
3.901576,-0.57
3.9011839999999998,-0.57
3.900106,-0.56
3.900204,-0.56
3.899224,-0.56
3.89893,-0.56
3.898342,-0.56
3.8982439999999996,-0.56
3.8980479999999997,-0.56
3.8973619999999998,-0.56
3.897166,-0.56
3.8969699999999996,-0.56
3.896676,-0.56
3.8961859999999997,-0.56
3.89599,-0.56
3.8957939999999995,-0.56
3.8951079999999996,-0.55
3.895402,-0.55
3.895304,-0.55
3.8951079999999996,-0.55
3.895206,-0.55
3.8948139999999998,-0.55
3.8948139999999998,-0.55
