voltage(V),current(A)
3.854046,-0.48
3.84895,-0.47
3.84993,-0.47
3.8498319999999997,-0.47
3.850224,-0.47
3.88766,-5.07
3.888052,-5.09
3.889032,-5.09
3.88913,-5.09
3.890208,-5.09
3.8909920000000002,-5.09
3.8919719999999995,-5.09
3.8930499999999997,-5.09
3.8938339999999996,-5.10
3.8942259999999997,-5.10
3.8955979999999997,-5.10
3.8957939999999995,-5.10
3.8960879999999998,-5.10
3.896676,-5.10
3.8967739999999997,-5.10
3.897068,-5.10
3.897656,-5.10
3.897852,-5.10
3.8980479999999997,-5.10
3.89844,-5.10
3.898342,-5.10
3.8982439999999996,-5.10
3.8994199999999997,-5.10
3.899518,-5.10
3.900302,-5.10
3.899812,-5.09
3.9006939999999997,-5.10
3.900302,-5.10
3.900792,-5.10
3.9011839999999998,-5.10
3.901968,-5.10
3.901674,-5.10
3.902654,-5.10
3.9031439999999997,-5.10
3.903242,-5.10
3.9037319999999998,-5.10
3.904614,-5.10
3.904712,-5.10
3.905496,-5.10
3.905496,-5.10
3.90579,-5.10
3.906182,-5.10
3.906672,-5.10
3.906672,-5.10
3.906672,-5.10
3.907064,-5.10
3.906966,-5.10
3.907652,-5.10
3.9074560000000003,-5.10
3.90775,-5.10
3.907652,-5.10
3.9081420000000002,-5.10
3.9079459999999995,-5.10
3.90824,-5.10
3.90824,-5.10
3.908436,-5.10
3.9085339999999995,-5.10
3.908338,-5.10
3.9087300000000003,-5.10
3.909514,-5.10
3.9090239999999996,-5.10
3.9094160000000002,-5.10
3.9096119999999996,-5.10
3.9104939999999995,-5.10
3.9103959999999995,-5.10
3.9109839999999996,-5.10
3.9106899999999998,-5.10
3.9114739999999997,-5.10
3.911768,-5.10
3.9119639999999998,-5.10
3.912356,-5.10
3.912552,-5.10
3.9135319999999996,-5.10
3.91363,-5.10
3.9141199999999996,-5.10
3.9145119999999998,-5.10
3.9147079999999996,-5.10
3.914806,-5.10
3.9151979999999997,-5.10
3.9152959999999997,-5.10
3.915688,-5.10
3.915688,-5.10
3.9157859999999998,-5.10
3.91608,-5.10
3.916276,-5.10
3.916276,-5.10
3.916962,-5.10
3.916766,-5.10
3.9164719999999997,-5.10
3.916766,-5.10
3.9170599999999998,-5.10
3.9171579999999997,-5.10
3.917354,-5.10
3.917354,-5.10
3.917648,-5.10
3.917942,-5.10
3.9177459999999997,-5.10
3.91755,-5.10
3.91804,-5.10
3.9178439999999997,-5.10
3.91804,-5.10
3.918138,-5.10
3.9183339999999998,-5.10
3.9184319999999997,-5.10
3.91853,-5.10
3.918628,-5.10
3.9190199999999997,-5.10
3.918726,-5.10
3.919118,-5.10
3.9196079999999998,-5.10
3.919118,-5.10
3.918922,-5.10
3.919706,-5.10
3.919804,-5.10
3.919804,-5.10
3.920098,-5.10
3.920784,-5.10
3.921078,-5.10
3.92098,-5.10
3.921078,-5.10
3.921568,-5.10
3.921176,-5.10
3.92196,-5.10
3.921764,-5.10
3.922156,-5.10
3.922842,-5.10
3.922744,-5.10
3.922548,-5.10
3.923724,-5.10
3.923822,-5.10
3.923626,-5.10
3.9240180000000002,-5.10
3.92392,-5.10
3.92441,-5.10
3.924704,-5.10
3.924704,-5.10
3.924998,-5.10
3.9250959999999995,-5.10
3.9251939999999994,-5.10
3.925586,-5.10
3.92539,-5.10
3.9261739999999996,-5.10
3.926076,-5.10
3.9262719999999995,-5.10
3.9262719999999995,-5.10
3.9267619999999996,-5.10
3.9264680000000003,-5.10
3.926664,-5.10
3.9267619999999996,-5.10
3.9269579999999995,-5.10
3.926664,-5.10
3.9272519999999997,-5.10
3.9272519999999997,-5.10
3.9271540000000003,-5.10
3.9271540000000003,-5.10
3.9274479999999996,-5.10
3.9275459999999995,-5.10
3.9274479999999996,-5.10
3.9276439999999995,-5.10
3.9274479999999996,-5.10
3.9276439999999995,-5.10
3.9278399999999998,-5.10
3.9276439999999995,-5.10
3.9279379999999997,-5.10
3.9279379999999997,-5.10
3.9279379999999997,-5.10
3.9278399999999998,-5.10
3.9281339999999996,-5.10
3.9280359999999996,-5.10
3.9286239999999997,-5.10
3.9285259999999997,-5.10
3.928918,-5.10
3.9281339999999996,-5.10
3.9291139999999998,-5.10
3.928918,-5.10
3.9287219999999996,-5.10
3.9292119999999997,-5.10
3.9291139999999998,-5.10
3.929604,-5.10
3.9298979999999997,-5.10
3.9293099999999996,-5.10
3.9297999999999997,-5.10
3.93078,-5.10
3.9299959999999996,-5.10
3.9303879999999998,-5.10
3.93029,-5.10
3.9311719999999997,-5.10
3.930976,-5.10
3.9311719999999997,-5.10
3.930976,-5.10
3.931564,-5.10
3.931466,-5.10
3.932054,-5.10
3.9324459999999997,-5.10
3.9329359999999998,-5.10
3.932838,-5.10
3.932838,-5.10
3.9331319999999996,-5.10
3.9330339999999997,-5.10
3.934112,-5.10
3.9337199999999997,-5.10
3.9343079999999997,-5.10
3.9347,-5.10
3.9342099999999998,-5.10
3.9347,-5.10
3.9348959999999997,-5.10
3.9348959999999997,-5.10
3.9349939999999997,-5.10
3.934504,-5.10
3.935386,-5.10
3.935092,-5.10
3.9355819999999997,-5.10
3.93519,-5.10
3.93568,-5.10
3.9355819999999997,-5.10
3.935974,-5.10
3.9355819999999997,-5.10
3.935974,-5.10
3.935778,-5.10
3.936268,-5.10
3.936268,-5.10
3.936366,-5.10
3.936464,-5.10
3.936366,-5.10
3.936464,-5.10
3.936268,-5.10
3.936464,-5.10
3.9367579999999998,-5.10
3.936856,-5.10
3.9367579999999998,-5.10
3.9367579999999998,-5.10
3.936954,-5.10
3.936954,-5.10
3.936954,-5.10
3.93715,-5.10
3.936954,-5.10
3.937346,-5.10
3.937346,-5.10
3.937346,-5.10
3.9374439999999997,-5.10
3.9374439999999997,-5.10
3.9374439999999997,-5.10
3.937836,-5.10
3.937738,-5.10
3.937542,-5.10
3.937934,-5.10
3.937738,-5.10
3.93813,-5.10
3.938228,-5.10
3.937934,-5.10
3.93813,-5.10
3.938522,-5.10
3.938424,-5.10
3.93862,-5.10
3.9396,-5.10
3.939208,-5.10
3.94058,-5.10
3.940286,-5.10
3.94009,-5.10
3.940188,-5.10
3.940482,-5.10
3.940678,-5.10
3.940286,-5.10
3.940678,-5.10
3.940972,-5.10
3.940874,-5.10
3.94058,-5.10
3.940972,-5.10
3.94107,-5.10
3.906672,-0.58
3.90579,-0.57
3.90481,-0.57
3.904908,-0.57
3.904614,-0.57
3.903928,-0.57
3.903536,-0.57
3.90334,-0.57
3.903242,-0.57
3.902654,-0.57
3.902654,-0.57
3.901772,-0.57
3.901478,-0.57
3.900988,-0.56
3.900204,-0.56
3.899714,-0.56
3.8999099999999998,-0.56
3.899224,-0.56
3.898538,-0.56
3.8986359999999998,-0.56
3.89795,-0.56
3.8975579999999996,-0.56
3.8973619999999998,-0.56
3.897264,-0.56
3.897166,-0.56
3.8962839999999996,-0.56
3.8962839999999996,-0.56
3.8960879999999998,-0.56
3.8960879999999998,-0.56
3.8960879999999998,-0.56
3.8957939999999995,-0.56
