voltage(V),current(A)
3.84993,-0.47
3.8473819999999996,-0.46
3.847774,-0.46
3.848264,-0.46
3.84748,-0.46
3.8857,-5.08
3.886876,-5.10
3.887562,-5.10
3.888346,-5.10
3.888542,-5.10
3.888738,-5.10
3.88962,-5.10
3.890012,-5.10
3.8903060000000003,-5.10
3.89109,-5.10
3.892364,-5.11
3.8929519999999997,-5.11
3.89354,-5.11
3.8951079999999996,-5.11
3.8954999999999997,-5.11
3.8960879999999998,-5.11
3.895892,-5.11
3.896578,-5.11
3.89648,-5.11
3.8968719999999997,-5.11
3.8973619999999998,-5.11
3.897264,-5.11
3.897656,-5.11
3.897852,-5.11
3.89795,-5.11
3.898538,-5.11
3.8986359999999998,-5.11
3.8987339999999997,-5.11
3.899126,-5.11
3.899518,-5.11
3.900302,-5.11
3.90089,-5.11
3.900204,-5.11
3.9004,-5.11
3.900204,-5.11
3.901576,-5.11
3.9012819999999997,-5.11
3.902262,-5.11
3.902262,-5.11
3.902752,-5.11
3.903536,-5.11
3.903634,-5.11
3.904026,-5.11
3.905006,-5.11
3.9053,-5.11
3.905986,-5.11
3.906182,-5.11
3.906476,-5.11
3.906476,-5.11
3.906476,-5.11
3.9068680000000002,-5.11
3.906966,-5.11
3.907162,-5.11
3.90775,-5.11
3.9080439999999994,-5.11
3.9080439999999994,-5.11
3.907652,-5.11
3.908436,-5.11
3.9081420000000002,-5.11
3.908338,-5.11
3.908338,-5.11
3.9087300000000003,-5.11
3.908926,-5.11
3.908926,-5.11
3.9098079999999995,-5.11
3.9096119999999996,-5.11
3.9098079999999995,-5.11
3.9100040000000003,-5.11
3.9104939999999995,-5.11
3.9103959999999995,-5.11
3.9109839999999996,-5.11
3.9110819999999995,-5.11
3.91118,-5.11
3.9119639999999998,-5.11
3.912552,-5.11
3.912552,-5.11
3.9126499999999997,-5.11
3.91363,-5.11
3.9141199999999996,-5.11
3.914218,-5.11
3.913826,-5.11
3.9145119999999998,-5.11
3.915002,-5.11
3.91559,-5.11
3.91559,-5.11
3.9157859999999998,-5.11
3.91608,-5.11
3.9159819999999996,-5.11
3.9159819999999996,-5.11
3.91608,-5.11
3.9165699999999997,-5.11
3.916668,-5.11
3.9170599999999998,-5.11
3.9171579999999997,-5.11
3.917354,-5.11
3.9170599999999998,-5.11
3.917256,-5.11
3.9170599999999998,-5.11
3.917452,-5.11
3.9177459999999997,-5.11
3.917452,-5.11
3.9177459999999997,-5.11
3.9177459999999997,-5.11
3.91804,-5.11
3.917942,-5.11
3.918628,-5.11
3.9183339999999998,-5.11
3.9183339999999998,-5.11
3.91853,-5.11
3.918726,-5.11
3.918922,-5.11
3.919216,-5.11
3.919314,-5.11
3.919314,-5.11
3.919902,-5.11
3.9196079999999998,-5.11
3.92,-5.11
3.919804,-5.11
3.920588,-5.11
3.920196,-5.11
3.920392,-5.11
3.920588,-5.11
3.92098,-5.11
3.921274,-5.11
3.921078,-5.11
3.921568,-5.11
3.921666,-5.11
3.922254,-5.11
3.923038,-5.11
3.92245,-5.11
3.923038,-5.11
3.922842,-5.11
3.923234,-5.11
3.923822,-5.11
3.923724,-5.11
3.9240180000000002,-5.11
3.924312,-5.11
3.9246060000000003,-5.11
3.924998,-5.11
3.9250959999999995,-5.11
3.924802,-5.11
3.924802,-5.11
3.925586,-5.11
3.9252920000000002,-5.11
3.9258800000000003,-5.11
3.925978,-5.11
3.926076,-5.11
3.9262719999999995,-5.11
3.9264680000000003,-5.11
3.9265660000000002,-5.11
3.9268599999999996,-5.11
3.926664,-5.11
3.9267619999999996,-5.11
3.9269579999999995,-5.11
3.9269579999999995,-5.11
3.9270560000000003,-5.11
3.9271540000000003,-5.11
3.9272519999999997,-5.11
3.9271540000000003,-5.11
3.9272519999999997,-5.11
3.9273499999999997,-5.11
3.9276439999999995,-5.11
3.9277420000000003,-5.11
3.9279379999999997,-5.11
3.9279379999999997,-5.11
3.9279379999999997,-5.11
3.9282319999999995,-5.11
3.9282319999999995,-5.11
3.9282319999999995,-5.11
3.9278399999999998,-5.11
3.9286239999999997,-5.11
3.928428,-5.11
3.9282319999999995,-5.11
3.928428,-5.11
3.9287219999999996,-5.11
3.9288199999999995,-5.11
3.929016,-5.11
3.929016,-5.11
3.9293099999999996,-5.11
3.929506,-5.11
3.9300939999999995,-5.11
3.9297999999999997,-5.11
3.9298979999999997,-5.11
3.9298979999999997,-5.11
3.9303879999999998,-5.11
3.9306819999999996,-5.11
3.9304859999999997,-5.11
3.9312699999999996,-5.11
3.931368,-5.11
3.93078,-5.11
3.9316619999999998,-5.11
3.931564,-5.11
3.931956,-5.11
3.932152,-5.11
3.932642,-5.11
3.9329359999999998,-5.11
3.9331319999999996,-5.11
3.93274,-5.11
3.933524,-5.11
3.9337199999999997,-5.11
3.934406,-5.11
3.933818,-5.11
3.934014,-5.11
3.934014,-5.11
3.9343079999999997,-5.11
3.934406,-5.11
3.9347,-5.11
3.9348959999999997,-5.11
3.935092,-5.11
3.93519,-5.11
3.935288,-5.11
3.93568,-5.11
3.935778,-5.12
3.9355819999999997,-5.11
3.935876,-5.11
3.935974,-5.11
3.935974,-5.11
3.936268,-5.11
3.936072,-5.11
3.936268,-5.11
3.936072,-5.11
3.9361699999999997,-5.11
3.936268,-5.11
3.936366,-5.11
3.936366,-5.11
3.936562,-5.11
3.936464,-5.11
3.93666,-5.11
3.936562,-5.11
3.936856,-5.11
3.936954,-5.11
3.937248,-5.11
3.937052,-5.11
3.937052,-5.11
3.93715,-5.11
3.93715,-5.11
3.9374439999999997,-5.11
3.937346,-5.11
3.937542,-5.11
3.9374439999999997,-5.11
3.937934,-5.11
3.9374439999999997,-5.11
3.937738,-5.11
3.93764,-5.11
3.937738,-5.11
3.938424,-5.11
3.937738,-5.11
3.938326,-5.11
3.93813,-5.11
3.938424,-5.11
3.938228,-5.11
3.9380319999999998,-5.11
3.93862,-5.11
3.93862,-5.11
3.939012,-5.11
3.93862,-5.11
3.938816,-5.11
3.939502,-5.11
3.939208,-5.11
3.9396,-5.11
3.9396,-5.11
3.939698,-5.11
3.939404,-5.11
3.939502,-5.11
3.94058,-5.11
3.940188,-5.11
3.940188,-5.11
3.940286,-5.11
3.940286,-5.11
3.906476,-0.58
3.905398,-0.57
3.90481,-0.57
3.904124,-0.57
3.904222,-0.57
3.9037319999999998,-0.57
3.90285,-0.57
3.902654,-0.57
3.902164,-0.57
3.901576,-0.57
3.90138,-0.57
3.9005959999999997,-0.56
3.9005959999999997,-0.56
3.899714,-0.56
3.8994199999999997,-0.56
3.89893,-0.56
3.89844,-0.56
3.8975579999999996,-0.56
3.897852,-0.56
3.8969699999999996,-0.56
3.897068,-0.56
3.8967739999999997,-0.56
3.896676,-0.56
3.8960879999999998,-0.56
3.89599,-0.56
3.8957939999999995,-0.56
3.8955979999999997,-0.55
3.8957939999999995,-0.56
3.8955979999999997,-0.55
3.895206,-0.55
3.8950099999999996,-0.55
