voltage(V),current(A)
3.84895,-0.47
3.8465,-0.46
3.84699,-0.46
3.8467939999999996,-0.46
3.8466959999999997,-0.46
3.812788,-0.22
3.88619,-5.10
3.8865819999999998,-5.10
3.887464,-5.10
3.887856,-5.10
3.888738,-5.10
3.888934,-5.10
3.888836,-5.10
3.890208,-5.10
3.8906,-5.10
3.8908939999999994,-5.10
3.8918739999999996,-5.10
3.8924619999999996,-5.10
3.8936379999999997,-5.10
3.8932459999999995,-5.10
3.8942259999999997,-5.10
3.894716,-5.10
3.8950099999999996,-5.10
3.895402,-5.10
3.895892,-5.11
3.8967739999999997,-5.10
3.89648,-5.10
3.897068,-5.10
3.8968719999999997,-5.10
3.897264,-5.10
3.8975579999999996,-5.10
3.897852,-5.10
3.89795,-5.10
3.8981459999999997,-5.10
3.89844,-5.10
3.898342,-5.10
3.8988319999999996,-5.10
3.8988319999999996,-5.10
3.8994199999999997,-5.11
3.89893,-5.10
3.899812,-5.11
3.9006939999999997,-5.11
3.900988,-5.11
3.901086,-5.11
3.901478,-5.11
3.901968,-5.11
3.90236,-5.11
3.9024579999999998,-5.11
3.90285,-5.11
3.903242,-5.11
3.904516,-5.11
3.905104,-5.11
3.905398,-5.11
3.9053,-5.11
3.905692,-5.11
3.905888,-5.11
3.906084,-5.11
3.905986,-5.11
3.906672,-5.11
3.906672,-5.11
3.906378,-5.11
3.906574,-5.11
3.907064,-5.11
3.9074560000000003,-5.11
3.907554,-5.11
3.907652,-5.11
3.9074560000000003,-5.11
3.9081420000000002,-5.11
3.9080439999999994,-5.11
3.907848,-5.11
3.908338,-5.11
3.908436,-5.11
3.908436,-5.11
3.9086319999999994,-5.11
3.9086319999999994,-5.11
3.9092199999999995,-5.11
3.908926,-5.10
3.908926,-5.11
3.9097099999999996,-5.11
3.9101999999999997,-5.11
3.9107879999999997,-5.11
3.9101999999999997,-5.11
3.9107879999999997,-5.11
3.9108859999999996,-5.11
3.911768,-5.11
3.9116699999999995,-5.11
3.9121599999999996,-5.11
3.912454,-5.11
3.9126499999999997,-5.11
3.912454,-5.11
3.9139239999999997,-5.11
3.9139239999999997,-5.11
3.9146099999999997,-5.11
3.9145119999999998,-5.11
3.914806,-5.11
3.915002,-5.11
3.9153939999999996,-5.11
3.9153939999999996,-5.11
3.9159819999999996,-5.11
3.915688,-5.11
3.9159819999999996,-5.11
3.9157859999999998,-5.11
3.91608,-5.11
3.9159819999999996,-5.11
3.9164719999999997,-5.11
3.916374,-5.11
3.9164719999999997,-5.11
3.916276,-5.11
3.9165699999999997,-5.11
3.9165699999999997,-5.11
3.9170599999999998,-5.11
3.917256,-5.11
3.917354,-5.11
3.917354,-5.11
3.917452,-5.11
3.917648,-5.11
3.917648,-5.11
3.9178439999999997,-5.11
3.9177459999999997,-5.11
3.91804,-5.11
3.917942,-5.11
3.917942,-5.11
3.91853,-5.11
3.91853,-5.11
3.918236,-5.11
3.91853,-5.11
3.918824,-5.11
3.918922,-5.11
3.91853,-5.11
3.919216,-5.11
3.919118,-5.11
3.919314,-5.11
3.919118,-5.11
3.92049,-5.11
3.919706,-5.11
3.919412,-5.11
3.920098,-5.11
3.920196,-5.11
3.921274,-5.11
3.920686,-5.11
3.9208819999999998,-5.11
3.921078,-5.11
3.922156,-5.11
3.921666,-5.11
3.922548,-5.11
3.921862,-5.11
3.922058,-5.11
3.922548,-5.11
3.92245,-5.11
3.923038,-5.11
3.923528,-5.11
3.9240180000000002,-5.11
3.923822,-5.11
3.924704,-5.11
3.924998,-5.11
3.92441,-5.11
3.924998,-5.11
3.92539,-5.11
3.9251939999999994,-5.11
3.9252920000000002,-5.11
3.925586,-5.11
3.926076,-5.11
3.925586,-5.11
3.925978,-5.11
3.9258800000000003,-5.11
3.925978,-5.11
3.9261739999999996,-5.11
3.9262719999999995,-5.11
3.9263699999999995,-5.11
3.9264680000000003,-5.11
3.9269579999999995,-5.11
3.926664,-5.11
3.9271540000000003,-5.11
3.9269579999999995,-5.11
3.9273499999999997,-5.11
3.9273499999999997,-5.11
3.9273499999999997,-5.11
3.9274479999999996,-5.11
3.9277420000000003,-5.11
3.9274479999999996,-5.11
3.9275459999999995,-5.11
3.9277420000000003,-5.11
3.9279379999999997,-5.11
3.9275459999999995,-5.11
3.9271540000000003,-5.11
3.9277420000000003,-5.11
3.9275459999999995,-5.11
3.9282319999999995,-5.11
3.92833,-5.11
3.928428,-5.11
3.9286239999999997,-5.11
3.9281339999999996,-5.11
3.9291139999999998,-5.11
3.9285259999999997,-5.11
3.9288199999999995,-5.11
3.9291139999999998,-5.11
3.928918,-5.11
3.9293099999999996,-5.11
3.928918,-5.11
3.929604,-5.11
3.929604,-5.11
3.9298979999999997,-5.11
3.9297999999999997,-5.11
3.93029,-5.11
3.9299959999999996,-5.11
3.9306819999999996,-5.11
3.93078,-5.11
3.930878,-5.11
3.9316619999999998,-5.11
3.930878,-5.11
3.931368,-5.11
3.931368,-5.11
3.931466,-5.11
3.931956,-5.11
3.9318579999999996,-5.11
3.932054,-5.11
3.931956,-5.11
3.93225,-5.11
3.932152,-5.11
3.932152,-5.11
3.9329359999999998,-5.11
3.9329359999999998,-5.11
3.9331319999999996,-5.11
3.9331319999999996,-5.11
3.933328,-5.11
3.933426,-5.11
3.9336219999999997,-5.11
3.9337199999999997,-5.11
3.934014,-5.11
3.933818,-5.11
3.9347,-5.11
3.934406,-5.11
3.934602,-5.11
3.9349939999999997,-5.11
3.9347,-5.11
3.935092,-5.11
3.935092,-5.11
3.9349939999999997,-5.11
3.935386,-5.11
3.93568,-5.11
3.9355819999999997,-5.11
3.935876,-5.11
3.935876,-5.11
3.935876,-5.11
3.935778,-5.11
3.935778,-5.11
3.935974,-5.11
3.935876,-5.11
3.936268,-5.11
3.9361699999999997,-5.11
3.936268,-5.11
3.936562,-5.11
3.9367579999999998,-5.11
3.936562,-5.11
3.93666,-5.11
3.936464,-5.11
3.9367579999999998,-5.11
3.937248,-5.11
3.9367579999999998,-5.11
3.937052,-5.11
3.93715,-5.11
3.937248,-5.11
3.937248,-5.11
3.937542,-5.11
3.9374439999999997,-5.11
3.937836,-5.11
3.937248,-5.11
3.93764,-5.11
3.937542,-5.11
3.937738,-5.11
3.9380319999999998,-5.11
3.937836,-5.11
3.93764,-5.11
3.938326,-5.11
3.903634,-0.57
3.9031439999999997,-0.57
3.9024579999999998,-0.57
3.901674,-0.57
3.900498,-0.56
3.9005959999999997,-0.56
3.899812,-0.56
3.8994199999999997,-0.56
3.8982439999999996,-0.56
3.8975579999999996,-0.56
3.89795,-0.56
3.8969699999999996,-0.56
3.8967739999999997,-0.56
3.8963819999999996,-0.56
3.89599,-0.56
3.8957939999999995,-0.56
3.895304,-0.55
3.8955979999999997,-0.55
3.8950099999999996,-0.55
3.8950099999999996,-0.55
3.894716,-0.55
3.894618,-0.55
3.8943239999999997,-0.55
3.8944219999999996,-0.55
3.894128,-0.55
3.89354,-0.55
3.8939319999999995,-0.55
3.8934420000000003,-0.55
3.8936379999999997,-0.55
3.8931479999999996,-0.55
3.8933439999999995,-0.55
