voltage(V),current(A)
3.851988,-0.47
3.847578,-0.46
3.847578,-0.46
3.848068,-0.46
3.847578,-0.46
3.885112,-5.07
3.886974,-5.09
3.887268,-5.10
3.887758,-5.10
3.888444,-5.10
3.88913,-5.10
3.888836,-5.10
3.8903060000000003,-5.10
3.890502,-5.10
3.8907959999999995,-5.10
3.8919719999999995,-5.10
3.8924619999999996,-5.10
3.8938339999999996,-5.10
3.894128,-5.10
3.894716,-5.10
3.8949119999999997,-5.10
3.8955979999999997,-5.10
3.8957939999999995,-5.10
3.89648,-5.10
3.8963819999999996,-5.10
3.897068,-5.10
3.897166,-5.10
3.897264,-5.10
3.897656,-5.10
3.897852,-5.10
3.8980479999999997,-5.10
3.89844,-5.10
3.8987339999999997,-5.10
3.898342,-5.10
3.8994199999999997,-5.10
3.89893,-5.10
3.899518,-5.10
3.9000079999999997,-5.10
3.900302,-5.10
3.900204,-5.10
3.9012819999999997,-5.11
3.9011839999999998,-5.10
3.901674,-5.11
3.902262,-5.11
3.903046,-5.11
3.903242,-5.11
3.90334,-5.11
3.903634,-5.11
3.903438,-5.11
3.904418,-5.11
3.905202,-5.11
3.905496,-5.11
3.90579,-5.10
3.906084,-5.10
3.9068680000000002,-5.10
3.906574,-5.10
3.906966,-5.10
3.906574,-5.10
3.90677,-5.10
3.90726,-5.10
3.90726,-5.10
3.907358,-5.10
3.907358,-5.10
3.90775,-5.10
3.9081420000000002,-5.10
3.9079459999999995,-5.10
3.9081420000000002,-5.10
3.908436,-5.10
3.9086319999999994,-5.10
3.9087300000000003,-5.11
3.9090239999999996,-5.10
3.9090239999999996,-5.10
3.9091219999999995,-5.10
3.909514,-5.10
3.909514,-5.10
3.9096119999999996,-5.10
3.9103959999999995,-5.11
3.9105920000000003,-5.11
3.9105920000000003,-5.11
3.9113759999999997,-5.11
3.911278,-5.11
3.9110819999999995,-5.11
3.9116699999999995,-5.11
3.9114739999999997,-5.11
3.9122579999999996,-5.11
3.912356,-5.11
3.9127479999999997,-5.11
3.91314,-5.11
3.914414,-5.11
3.914218,-5.11
3.914806,-5.11
3.914806,-5.11
3.9153939999999996,-5.11
3.915688,-5.11
3.915688,-5.11
3.9157859999999998,-5.11
3.9158839999999997,-5.11
3.916178,-5.11
3.91608,-5.11
3.9164719999999997,-5.11
3.9165699999999997,-5.11
3.916864,-5.11
3.916668,-5.10
3.916864,-5.10
3.917256,-5.10
3.916962,-5.10
3.917256,-5.10
3.917452,-5.11
3.917942,-5.11
3.9177459999999997,-5.10
3.917648,-5.10
3.917942,-5.10
3.917648,-5.10
3.91804,-5.11
3.918138,-5.11
3.918236,-5.11
3.918236,-5.10
3.918922,-5.10
3.919118,-5.10
3.919314,-5.10
3.919706,-5.11
3.919412,-5.10
3.919216,-5.11
3.9196079999999998,-5.11
3.9196079999999998,-5.11
3.92,-5.11
3.92,-5.11
3.919804,-5.11
3.920196,-5.11
3.9202939999999997,-5.11
3.920686,-5.11
3.920588,-5.11
3.920686,-5.11
3.921176,-5.11
3.921568,-5.11
3.921568,-5.11
3.921666,-5.11
3.921764,-5.11
3.922352,-5.11
3.92245,-5.11
3.922744,-5.11
3.922842,-5.11
3.923234,-5.11
3.92294,-5.11
3.923626,-5.11
3.923234,-5.11
3.924116,-5.11
3.924214,-5.11
3.92441,-5.11
3.924508,-5.11
3.924704,-5.11
3.9251939999999994,-5.11
3.924998,-5.11
3.925978,-5.11
3.9256839999999995,-5.11
3.925978,-5.11
3.9257819999999994,-5.11
3.926076,-5.11
3.9263699999999995,-5.11
3.9264680000000003,-5.11
3.9262719999999995,-5.11
3.9265660000000002,-5.11
3.9264680000000003,-5.11
3.926664,-5.11
3.9268599999999996,-5.11
3.9269579999999995,-5.11
3.9268599999999996,-5.10
3.9271540000000003,-5.10
3.9272519999999997,-5.10
3.9272519999999997,-5.10
3.9271540000000003,-5.10
3.9272519999999997,-5.10
3.9274479999999996,-5.11
3.9279379999999997,-5.11
3.9275459999999995,-5.10
3.9275459999999995,-5.10
3.9281339999999996,-5.11
3.9277420000000003,-5.10
3.9277420000000003,-5.11
3.9278399999999998,-5.10
3.9279379999999997,-5.11
3.9278399999999998,-5.10
3.9282319999999995,-5.10
3.9281339999999996,-5.10
3.9282319999999995,-5.11
3.9285259999999997,-5.11
3.928428,-5.10
3.9286239999999997,-5.10
3.929016,-5.11
3.9292119999999997,-5.11
3.928918,-5.11
3.9287219999999996,-5.11
3.9288199999999995,-5.10
3.9292119999999997,-5.11
3.9291139999999998,-5.10
3.929702,-5.11
3.929702,-5.11
3.9299959999999996,-5.11
3.930192,-5.10
3.9306819999999996,-5.11
3.9306819999999996,-5.11
3.93078,-5.11
3.9316619999999998,-5.11
3.931368,-5.11
3.930878,-5.11
3.9316619999999998,-5.11
3.931564,-5.11
3.931956,-5.11
3.931956,-5.11
3.9323479999999997,-5.11
3.932838,-5.11
3.9325439999999996,-5.11
3.9331319999999996,-5.11
3.9331319999999996,-5.11
3.9337199999999997,-5.11
3.933916,-5.11
3.934014,-5.11
3.934112,-5.11
3.934602,-5.11
3.9347,-5.11
3.934504,-5.11
3.934602,-5.11
3.934798,-5.11
3.93568,-5.11
3.935386,-5.11
3.935288,-5.11
3.935386,-5.11
3.935386,-5.11
3.9354839999999998,-5.11
3.9355819999999997,-5.11
3.935876,-5.11
3.935974,-5.11
3.9361699999999997,-5.11
3.935778,-5.11
3.9361699999999997,-5.11
3.936072,-5.11
3.936464,-5.11
3.9361699999999997,-5.11
3.936562,-5.11
3.936856,-5.11
3.936562,-5.11
3.93666,-5.11
3.936562,-5.11
3.936856,-5.11
3.93666,-5.11
3.93666,-5.11
3.936856,-5.11
3.93715,-5.11
3.936954,-5.11
3.937052,-5.11
3.936856,-5.11
3.936954,-5.11
3.937052,-5.11
3.937346,-5.11
3.937346,-5.11
3.9374439999999997,-5.11
3.937738,-5.11
3.937248,-5.10
3.937738,-5.11
3.937934,-5.11
3.937934,-5.11
3.937836,-5.11
3.937934,-5.11
3.937934,-5.11
3.93813,-5.11
3.93813,-5.11
3.938522,-5.11
3.938228,-5.11
3.93862,-5.11
3.938424,-5.11
3.938424,-5.11
3.938718,-5.11
3.939306,-5.11
3.938914,-5.11
3.905496,-0.57
3.904418,-0.57
3.904614,-0.57
3.903438,-0.57
3.903438,-0.57
3.902752,-0.57
3.902262,-0.57
3.9018699999999997,-0.57
3.901086,-0.57
3.900302,-0.56
3.900302,-0.56
3.9000079999999997,-0.56
3.8993219999999997,-0.56
3.899028,-0.56
3.8986359999999998,-0.56
3.8973619999999998,-0.56
3.8974599999999997,-0.56
3.8969699999999996,-0.56
3.8967739999999997,-0.56
3.8960879999999998,-0.56
3.895892,-0.56
3.8960879999999998,-0.56
3.8957939999999995,-0.56
3.8960879999999998,-0.56
3.895402,-0.55
3.895206,-0.55
3.8951079999999996,-0.55
3.895206,-0.55
3.8951079999999996,-0.55
3.8945199999999995,-0.55
3.8944219999999996,-0.55
