voltage(V),current(A)
3.854536,-0.48
3.85091,-0.47
3.85091,-0.47
3.850224,-0.47
3.850322,-0.47
3.8944219999999996,-5.08
3.8960879999999998,-5.10
3.8968719999999997,-5.10
3.897166,-5.10
3.897852,-5.10
3.89844,-5.10
3.898538,-5.10
3.8986359999999998,-5.10
3.899028,-5.10
3.899714,-5.10
3.900792,-5.10
3.9018699999999997,-5.11
3.901674,-5.11
3.902654,-5.11
3.903438,-5.11
3.904418,-5.11
3.904712,-5.11
3.904908,-5.11
3.905104,-5.11
3.906084,-5.11
3.906084,-5.11
3.906966,-5.11
3.906574,-5.11
3.907064,-5.11
3.907064,-5.11
3.907162,-5.11
3.9079459999999995,-5.11
3.907848,-5.11
3.908338,-5.11
3.9085339999999995,-5.11
3.9085339999999995,-5.11
3.908436,-5.11
3.9087300000000003,-5.11
3.9094160000000002,-5.11
3.9097099999999996,-5.11
3.9104939999999995,-5.11
3.9103959999999995,-5.11
3.9108859999999996,-5.11
3.9110819999999995,-5.11
3.9116699999999995,-5.11
3.911768,-5.11
3.912454,-5.11
3.9129439999999995,-5.11
3.9132379999999998,-5.11
3.9140219999999997,-5.11
3.9141199999999996,-5.11
3.915002,-5.11
3.9151,-5.11
3.9151979999999997,-5.11
3.9159819999999996,-5.11
3.9158839999999997,-5.11
3.916276,-5.11
3.9165699999999997,-5.11
3.916668,-5.11
3.916374,-5.11
3.916962,-5.11
3.916766,-5.11
3.9171579999999997,-5.11
3.917452,-5.11
3.917452,-5.11
3.9178439999999997,-5.11
3.91804,-5.11
3.91755,-5.11
3.917942,-5.11
3.91804,-5.11
3.918236,-5.11
3.918236,-5.11
3.9184319999999997,-5.11
3.918726,-5.11
3.918922,-5.11
3.919118,-5.11
3.919118,-5.11
3.91951,-5.11
3.919706,-5.11
3.919902,-5.11
3.919902,-5.11
3.920588,-5.11
3.9202939999999997,-5.11
3.920686,-5.11
3.921568,-5.11
3.92147,-5.11
3.92196,-5.11
3.92196,-5.11
3.92245,-5.11
3.922842,-5.11
3.92294,-5.11
3.923136,-5.11
3.9240180000000002,-5.11
3.924802,-5.11
3.9246060000000003,-5.11
3.924802,-5.11
3.9249,-5.11
3.9251939999999994,-5.11
3.9249,-5.11
3.92539,-5.11
3.9256839999999995,-5.11
3.9256839999999995,-5.11
3.926076,-5.11
3.926076,-5.11
3.9261739999999996,-5.11
3.9264680000000003,-5.11
3.9267619999999996,-5.11
3.9272519999999997,-5.11
3.9268599999999996,-5.11
3.9272519999999997,-5.11
3.9270560000000003,-5.11
3.9272519999999997,-5.11
3.9274479999999996,-5.11
3.9273499999999997,-5.11
3.9275459999999995,-5.11
3.9274479999999996,-5.11
3.9279379999999997,-5.11
3.9279379999999997,-5.11
3.92833,-5.11
3.9279379999999997,-5.11
3.9281339999999996,-5.11
3.9282319999999995,-5.11
3.9280359999999996,-5.11
3.92833,-5.11
3.928918,-5.11
3.9287219999999996,-5.11
3.928428,-5.11
3.9292119999999997,-5.11
3.9291139999999998,-5.11
3.9291139999999998,-5.11
3.929016,-5.11
3.9299959999999996,-5.11
3.929702,-5.11
3.9297999999999997,-5.11
3.93029,-5.11
3.930192,-5.11
3.930878,-5.11
3.931368,-5.11
3.930976,-5.11
3.9311719999999997,-5.11
3.931466,-5.11
3.931956,-5.11
3.93225,-5.11
3.932152,-5.11
3.9324459999999997,-5.11
3.9329359999999998,-5.11
3.9337199999999997,-5.11
3.933328,-5.11
3.934112,-5.11
3.9343079999999997,-5.11
3.934014,-5.11
3.934504,-5.11
3.934504,-5.11
3.935092,-5.12
3.935288,-5.11
3.9355819999999997,-5.12
3.9354839999999998,-5.11
3.935386,-5.12
3.935386,-5.11
3.935974,-5.12
3.935876,-5.11
3.935778,-5.11
3.936072,-5.11
3.936072,-5.11
3.936268,-5.11
3.93666,-5.11
3.93666,-5.11
3.936562,-5.11
3.936366,-5.11
3.936954,-5.11
3.9367579999999998,-5.11
3.936856,-5.11
3.937052,-5.11
3.937346,-5.11
3.936856,-5.11
3.937248,-5.11
3.937248,-5.11
3.93715,-5.11
3.937836,-5.11
3.93715,-5.11
3.937248,-5.11
3.9374439999999997,-5.11
3.937738,-5.11
3.937836,-5.11
3.937836,-5.11
3.937934,-5.11
3.93813,-5.11
3.938424,-5.11
3.938228,-5.11
3.938424,-5.11
3.938326,-5.11
3.938522,-5.11
3.939502,-5.11
3.938914,-5.11
3.939404,-5.11
3.93911,-5.11
3.939306,-5.11
3.93911,-5.11
3.939992,-5.11
3.9396,-5.11
3.939796,-5.11
3.940286,-5.11
3.940286,-5.11
3.94058,-5.11
3.940188,-5.11
3.94058,-5.11
3.939894,-5.11
3.94107,-5.11
3.94058,-5.11
3.941364,-5.11
3.941462,-5.11
3.9422459999999995,-5.11
3.9417560000000003,-5.11
3.942148,-5.11
3.9424420000000002,-5.11
3.9424420000000002,-5.11
3.942638,-5.11
3.9429319999999994,-5.11
3.94254,-5.11
3.9434219999999995,-5.11
3.943716,-5.11
3.9436180000000003,-5.11
3.9433239999999996,-5.11
3.943716,-5.11
3.9444019999999997,-5.12
3.9439119999999996,-5.11
3.9444999999999997,-5.11
3.9445979999999996,-5.11
3.9446959999999995,-5.11
3.9444999999999997,-5.11
3.9447939999999995,-5.11
3.9450879999999997,-5.11
3.9451859999999996,-5.12
3.9452839999999996,-5.11
3.9452839999999996,-5.12
3.945578,-5.12
3.9456759999999997,-5.12
3.9456759999999997,-5.12
3.9459699999999995,-5.12
3.9458719999999996,-5.12
3.945578,-5.12
3.9458719999999996,-5.12
3.9458719999999996,-5.11
3.9458719999999996,-5.11
3.946166,-5.11
3.9458719999999996,-5.11
3.946166,-5.11
3.946068,-5.11
3.946656,-5.11
3.9463619999999997,-5.11
3.946754,-5.11
3.9464599999999996,-5.11
3.9465579999999996,-5.11
3.946852,-5.11
3.9469499999999997,-5.11
3.946754,-5.11
3.9471459999999996,-5.11
3.9469499999999997,-5.11
3.946852,-5.11
3.9469499999999997,-5.11
3.9471459999999996,-5.11
3.9470479999999997,-5.11
3.9472439999999995,-5.11
3.9471459999999996,-5.11
3.9475379999999998,-5.11
3.94744,-5.11
3.9478319999999996,-5.11
3.947342,-5.11
3.94744,-5.11
3.9475379999999998,-5.11
3.94744,-5.11
3.948028,-5.11
3.9477339999999996,-5.11
3.948028,-5.11
3.907358,-0.58
3.905986,-0.57
3.9053,-0.57
3.904516,-0.57
3.904712,-0.57
3.904222,-0.57
3.90432,-0.57
3.9037319999999998,-0.57
3.9031439999999997,-0.57
3.902752,-0.57
3.9024579999999998,-0.57
3.9018699999999997,-0.57
3.9011839999999998,-0.57
3.9006939999999997,-0.56
3.900498,-0.56
3.900204,-0.56
3.899812,-0.56
3.8993219999999997,-0.56
3.899518,-0.56
3.8987339999999997,-0.56
3.8980479999999997,-0.56
3.897656,-0.56
3.897068,-0.56
3.8975579999999996,-0.56
3.8969699999999996,-0.56
3.8967739999999997,-0.56
3.89599,-0.56
3.89599,-0.56
3.895892,-0.56
3.8954999999999997,-0.55
3.895402,-0.55
