voltage(V),current(A)
3.85336,-0.47
3.850322,-0.47
3.850028,-0.47
3.849636,-0.47
3.851106,-0.47
3.817296,-0.23
3.886778,-5.09
3.888052,-5.09
3.888444,-5.09
3.888836,-5.09
3.88962,-5.09
3.8897180000000002,-5.09
3.890404,-5.09
3.8909920000000002,-5.09
3.891678,-5.09
3.8926579999999995,-5.09
3.8933439999999995,-5.09
3.8942259999999997,-5.10
3.8945199999999995,-5.10
3.8954999999999997,-5.10
3.8957939999999995,-5.10
3.8962839999999996,-5.10
3.8967739999999997,-5.10
3.8963819999999996,-5.10
3.897264,-5.10
3.8973619999999998,-5.10
3.8973619999999998,-5.10
3.897656,-5.10
3.8980479999999997,-5.10
3.8980479999999997,-5.10
3.898538,-5.10
3.898538,-5.10
3.899126,-5.10
3.8994199999999997,-5.10
3.899518,-5.10
3.8999099999999998,-5.10
3.900204,-5.10
3.900302,-5.10
3.9011839999999998,-5.10
3.9012819999999997,-5.10
3.901772,-5.10
3.902262,-5.10
3.90285,-5.10
3.90383,-5.10
3.9037319999999998,-5.10
3.90432,-5.10
3.904516,-5.10
3.905104,-5.10
3.905692,-5.10
3.905692,-5.10
3.905888,-5.10
3.905986,-5.10
3.906476,-5.10
3.90677,-5.10
3.9068680000000002,-5.10
3.907358,-5.10
3.9068680000000002,-5.10
3.90775,-5.10
3.90775,-5.10
3.9074560000000003,-5.10
3.907848,-5.10
3.907848,-5.10
3.908338,-5.10
3.9079459999999995,-5.10
3.907848,-5.10
3.9085339999999995,-5.10
3.9086319999999994,-5.10
3.9086319999999994,-5.10
3.9087300000000003,-5.10
3.908828,-5.10
3.9091219999999995,-5.10
3.9097099999999996,-5.10
3.909514,-5.10
3.9102979999999996,-5.10
3.9099060000000003,-5.10
3.9105920000000003,-5.10
3.9109839999999996,-5.10
3.9113759999999997,-5.10
3.911866,-5.10
3.9119639999999998,-5.10
3.9122579999999996,-5.10
3.9129439999999995,-5.10
3.9133359999999997,-5.10
3.91363,-5.10
3.9135319999999996,-5.10
3.914218,-5.11
3.914414,-5.10
3.9152959999999997,-5.10
3.91559,-5.11
3.915492,-5.11
3.915688,-5.11
3.9158839999999997,-5.11
3.91559,-5.10
3.9157859999999998,-5.10
3.916668,-5.10
3.916374,-5.10
3.916374,-5.10
3.916962,-5.11
3.917256,-5.11
3.9171579999999997,-5.10
3.916962,-5.10
3.9171579999999997,-5.10
3.917452,-5.10
3.91755,-5.10
3.917256,-5.10
3.917648,-5.10
3.9178439999999997,-5.10
3.917942,-5.10
3.9177459999999997,-5.10
3.917942,-5.10
3.917942,-5.10
3.918236,-5.10
3.918628,-5.10
3.917648,-5.10
3.9184319999999997,-5.10
3.918628,-5.10
3.918628,-5.10
3.9190199999999997,-5.10
3.918726,-5.10
3.919314,-5.10
3.9190199999999997,-5.10
3.919314,-5.10
3.91951,-5.10
3.919216,-5.10
3.919902,-5.10
3.920098,-5.10
3.920098,-5.10
3.920686,-5.10
3.920784,-5.10
3.9208819999999998,-5.10
3.920686,-5.10
3.921666,-5.10
3.922254,-5.10
3.922058,-5.10
3.922646,-5.11
3.92245,-5.10
3.922744,-5.10
3.923234,-5.11
3.923528,-5.11
3.92441,-5.11
3.924508,-5.11
3.92343,-5.11
3.9250959999999995,-5.11
3.9246060000000003,-5.11
3.9246060000000003,-5.11
3.9252920000000002,-5.10
3.9250959999999995,-5.11
3.925488,-5.11
3.925586,-5.11
3.9258800000000003,-5.11
3.925978,-5.11
3.9263699999999995,-5.11
3.9261739999999996,-5.11
3.9263699999999995,-5.11
3.9264680000000003,-5.11
3.9264680000000003,-5.11
3.9262719999999995,-5.10
3.9264680000000003,-5.10
3.926664,-5.10
3.9267619999999996,-5.11
3.9267619999999996,-5.11
3.9268599999999996,-5.10
3.9271540000000003,-5.10
3.9273499999999997,-5.11
3.9275459999999995,-5.11
3.9273499999999997,-5.11
3.9275459999999995,-5.10
3.9275459999999995,-5.10
3.9276439999999995,-5.10
3.9279379999999997,-5.10
3.9277420000000003,-5.10
3.9279379999999997,-5.10
3.9280359999999996,-5.10
3.9280359999999996,-5.10
3.9286239999999997,-5.11
3.9278399999999998,-5.10
3.9286239999999997,-5.11
3.92833,-5.11
3.9280359999999996,-5.10
3.9288199999999995,-5.11
3.928428,-5.10
3.9291139999999998,-5.11
3.9292119999999997,-5.11
3.9294079999999996,-5.11
3.929604,-5.11
3.9300939999999995,-5.11
3.929506,-5.11
3.929506,-5.10
3.9305839999999996,-5.11
3.9299959999999996,-5.11
3.9306819999999996,-5.11
3.930976,-5.11
3.9311719999999997,-5.11
3.931466,-5.11
3.9305839999999996,-5.11
3.931368,-5.11
3.931368,-5.11
3.9318579999999996,-5.11
3.932054,-5.11
3.931564,-5.11
3.931956,-5.11
3.9324459999999997,-5.11
3.9324459999999997,-5.11
3.931956,-5.11
3.9331319999999996,-5.11
3.9330339999999997,-5.11
3.933426,-5.11
3.933426,-5.11
3.933524,-5.11
3.934014,-5.11
3.933916,-5.11
3.934014,-5.11
3.934112,-5.11
3.934406,-5.11
3.934602,-5.11
3.9348959999999997,-5.11
3.93519,-5.11
3.93519,-5.11
3.9348959999999997,-5.10
3.935386,-5.11
3.9349939999999997,-5.11
3.9355819999999997,-5.10
3.935974,-5.11
3.9354839999999998,-5.10
3.935974,-5.11
3.935974,-5.11
3.936366,-5.10
3.936366,-5.10
3.9361699999999997,-5.10
3.936464,-5.11
3.936464,-5.10
3.936562,-5.10
3.93666,-5.10
3.9367579999999998,-5.10
3.93715,-5.10
3.9367579999999998,-5.10
3.936856,-5.10
3.937346,-5.10
3.936856,-5.10
3.93715,-5.10
3.936954,-5.10
3.937052,-5.10
3.9374439999999997,-5.10
3.936954,-5.10
3.937542,-5.10
3.9374439999999997,-5.10
3.93764,-5.10
3.937346,-5.10
3.937346,-5.10
3.9374439999999997,-5.10
3.937934,-5.10
3.9374439999999997,-5.10
3.93813,-5.10
3.93764,-5.10
3.93813,-5.10
3.93813,-5.11
3.93813,-5.10
3.938326,-5.10
3.9380319999999998,-5.10
3.938228,-5.10
3.938326,-5.10
3.938228,-5.10
3.938424,-5.10
3.938326,-5.11
3.93911,-5.10
3.93911,-5.10
3.939012,-5.10
3.938914,-5.10
3.939502,-5.11
3.939404,-5.10
3.939796,-5.10
3.939698,-5.11
3.939306,-5.10
3.939894,-5.11
3.907162,-0.58
3.905692,-0.57
3.905006,-0.57
3.904908,-0.57
3.905202,-0.57
3.90432,-0.57
3.904026,-0.57
3.903536,-0.57
3.902948,-0.57
3.90334,-0.57
3.90285,-0.57
3.902262,-0.57
3.902066,-0.57
3.901478,-0.57
3.9012819999999997,-0.57
3.900988,-0.56
3.900792,-0.56
3.90138,-0.57
3.899028,-0.56
3.89844,-0.56
3.898342,-0.56
3.89893,-0.56
3.899518,-0.56
3.897264,-0.56
3.897166,-0.56
3.8969699999999996,-0.56
3.8962839999999996,-0.56
3.8962839999999996,-0.56
3.8962839999999996,-0.56
3.8951079999999996,-0.55
3.8962839999999996,-0.56
