voltage(V),current(A)
3.856202,-0.48
3.852968,-0.47
3.85287,-0.47
3.853066,-0.47
3.853262,-0.47
3.82151,-0.23
3.889816,-5.09
3.8907959999999995,-5.09
3.8921680000000003,-5.09
3.8929519999999997,-5.09
3.894128,-5.09
3.895402,-5.10
3.89599,-5.10
3.896676,-5.10
3.8967739999999997,-5.10
3.897264,-5.10
3.897656,-5.10
3.8980479999999997,-5.10
3.8981459999999997,-5.10
3.898538,-5.10
3.8988319999999996,-5.10
3.8993219999999997,-5.10
3.899126,-5.10
3.8993219999999997,-5.10
3.900106,-5.10
3.9005959999999997,-5.10
3.9006939999999997,-5.10
3.901772,-5.10
3.9018699999999997,-5.10
3.9024579999999998,-5.10
3.9031439999999997,-5.10
3.904614,-5.10
3.90481,-5.10
3.905398,-5.10
3.9053,-5.10
3.905692,-5.10
3.90628,-5.10
3.906476,-5.10
3.906574,-5.10
3.9068680000000002,-5.10
3.90726,-5.10
3.9074560000000003,-5.10
3.907554,-5.10
3.907652,-5.10
3.9074560000000003,-5.10
3.90775,-5.10
3.9079459999999995,-5.10
3.9079459999999995,-5.10
3.9081420000000002,-5.10
3.908338,-5.10
3.9086319999999994,-5.10
3.9094160000000002,-5.10
3.9091219999999995,-5.10
3.9093180000000003,-5.10
3.9098079999999995,-5.10
3.9099060000000003,-5.10
3.9105920000000003,-5.10
3.9103959999999995,-5.10
3.91118,-5.10
3.9116699999999995,-5.10
3.912552,-5.10
3.912356,-5.10
3.9133359999999997,-5.10
3.913826,-5.10
3.9140219999999997,-5.10
3.914414,-5.10
3.914904,-5.10
3.914806,-5.10
3.9152959999999997,-5.10
3.9152959999999997,-5.10
3.9158839999999997,-5.10
3.9159819999999996,-5.10
3.91608,-5.10
3.916374,-5.10
3.916668,-5.10
3.916178,-5.10
3.916766,-5.10
3.9170599999999998,-5.10
3.9171579999999997,-5.10
3.9171579999999997,-5.10
3.917354,-5.10
3.917354,-5.10
3.917354,-5.10
3.9177459999999997,-5.10
3.917648,-5.10
3.917452,-5.10
3.918138,-5.10
3.917942,-5.10
3.91853,-5.10
3.9183339999999998,-5.10
3.91853,-5.10
3.918628,-5.10
3.918628,-5.10
3.9184319999999997,-5.10
3.919118,-5.10
3.919118,-5.10
3.919216,-5.10
3.919314,-5.10
3.9196079999999998,-5.10
3.919314,-5.10
3.919902,-5.10
3.9202939999999997,-5.10
3.921176,-5.10
3.920784,-5.10
3.921372,-5.10
3.921372,-5.10
3.921568,-5.10
3.921862,-5.10
3.922646,-5.10
3.922744,-5.10
3.923038,-5.10
3.923234,-5.10
3.923724,-5.10
3.924312,-5.10
3.924312,-5.10
3.924704,-5.10
3.9251939999999994,-5.10
3.924704,-5.10
3.925488,-5.10
3.9257819999999994,-5.10
3.9258800000000003,-5.11
3.9258800000000003,-5.10
3.926076,-5.11
3.925586,-5.10
3.9262719999999995,-5.10
3.9264680000000003,-5.10
3.9267619999999996,-5.10
3.926664,-5.10
3.9269579999999995,-5.10
3.9267619999999996,-5.10
3.9273499999999997,-5.10
3.9270560000000003,-5.10
3.9274479999999996,-5.10
3.9274479999999996,-5.10
3.9275459999999995,-5.10
3.9276439999999995,-5.10
3.9271540000000003,-5.10
3.9274479999999996,-5.10
3.9277420000000003,-5.10
3.9279379999999997,-5.10
3.92833,-5.10
3.9282319999999995,-5.10
3.9280359999999996,-5.10
3.9282319999999995,-5.10
3.92833,-5.10
3.9285259999999997,-5.10
3.9288199999999995,-5.10
3.9288199999999995,-5.10
3.9291139999999998,-5.10
3.9293099999999996,-5.10
3.928918,-5.10
3.929604,-5.10
3.9291139999999998,-5.10
3.9297999999999997,-5.10
3.9298979999999997,-5.10
3.9304859999999997,-5.10
3.9300939999999995,-5.10
3.9304859999999997,-5.10
3.9304859999999997,-5.10
3.93078,-5.10
3.931368,-5.10
3.931368,-5.10
3.931368,-5.10
3.932054,-5.10
3.9317599999999997,-5.10
3.9323479999999997,-5.10
3.9329359999999998,-5.11
3.9331319999999996,-5.11
3.93274,-5.10
3.933328,-5.11
3.9336219999999997,-5.10
3.933818,-5.10
3.933818,-5.10
3.934504,-5.10
3.934602,-5.10
3.934602,-5.10
3.934798,-5.10
3.934798,-5.10
3.935092,-5.10
3.9354839999999998,-5.10
3.9354839999999998,-5.10
3.935288,-5.10
3.9355819999999997,-5.10
3.93568,-5.10
3.935778,-5.10
3.93568,-5.10
3.935778,-5.10
3.9361699999999997,-5.10
3.936464,-5.10
3.936268,-5.10
3.9367579999999998,-5.10
3.936464,-5.10
3.93666,-5.10
3.936954,-5.10
3.936954,-5.10
3.936954,-5.10
3.93666,-5.10
3.936954,-5.10
3.93715,-5.10
3.937052,-5.10
3.937052,-5.10
3.937248,-5.10
3.937346,-5.10
3.937542,-5.10
3.937346,-5.10
3.9374439999999997,-5.10
3.93813,-5.10
3.937738,-5.10
3.93813,-5.10
3.93764,-5.10
3.937934,-5.10
3.937836,-5.10
3.9380319999999998,-5.10
3.938424,-5.10
3.938228,-5.10
3.939012,-5.10
3.938522,-5.10
3.938522,-5.10
3.938718,-5.10
3.939012,-5.10
3.938914,-5.10
3.938914,-5.10
3.9396,-5.10
3.939208,-5.10
3.939992,-5.10
3.940286,-5.10
3.940188,-5.10
3.939502,-5.10
3.940188,-5.10
3.939894,-5.10
3.940776,-5.11
3.940678,-5.10
3.940972,-5.10
3.941658,-5.11
3.941364,-5.10
3.941658,-5.10
3.9411680000000002,-5.10
3.94156,-5.10
3.942148,-5.11
3.942148,-5.11
3.942638,-5.10
3.9429319999999994,-5.11
3.9430300000000003,-5.11
3.943226,-5.11
3.9434219999999995,-5.11
3.943226,-5.11
3.943226,-5.10
3.9439119999999996,-5.11
3.9440099999999996,-5.11
3.9441079999999995,-5.11
3.9442060000000003,-5.11
3.9449899999999998,-5.11
3.9442060000000003,-5.11
3.9444019999999997,-5.11
3.9447939999999995,-5.11
3.9447939999999995,-5.11
3.9448920000000003,-5.11
3.9450879999999997,-5.11
3.9452839999999996,-5.11
3.9457739999999997,-5.11
3.9451859999999996,-5.10
3.9451859999999996,-5.11
3.9456759999999997,-5.11
3.9453819999999995,-5.10
3.9458719999999996,-5.11
3.9457739999999997,-5.11
3.9456759999999997,-5.10
3.9458719999999996,-5.10
3.9457739999999997,-5.10
3.9462639999999998,-5.10
3.9463619999999997,-5.10
3.9459699999999995,-5.10
3.9459699999999995,-5.10
3.9462639999999998,-5.10
3.912356,-0.59
3.9109839999999996,-0.58
3.9096119999999996,-0.58
3.90824,-0.58
3.9081420000000002,-0.58
3.907064,-0.58
3.90628,-0.57
3.90579,-0.57
3.90579,-0.57
3.905594,-0.57
3.905006,-0.57
3.905104,-0.57
3.904614,-0.57
3.904418,-0.57
3.904418,-0.57
3.904222,-0.57
3.903928,-0.57
3.903634,-0.57
3.903242,-0.57
3.90334,-0.57
3.90334,-0.57
3.902948,-0.57
3.90285,-0.57
3.90236,-0.57
3.902066,-0.57
3.901674,-0.57
3.901576,-0.57
3.9018699999999997,-0.57
3.900792,-0.56
3.900302,-0.56
3.9005959999999997,-0.56
