voltage(V),current(A)
3.855026,-0.48
3.852086,-0.47
3.8522819999999998,-0.47
3.8522819999999998,-0.47
3.8522819999999998,-0.47
3.819452,-0.23
3.8865819999999998,-5.10
3.887268,-5.10
3.887758,-5.10
3.88864,-5.10
3.888738,-5.10
3.888836,-5.10
3.8897180000000002,-5.10
3.890208,-5.10
3.8907959999999995,-5.10
3.8914819999999994,-5.10
3.8922660000000002,-5.10
3.8928540000000003,-5.10
3.8931479999999996,-5.10
3.8933439999999995,-5.10
3.8943239999999997,-5.10
3.894618,-5.10
3.8956959999999996,-5.10
3.8960879999999998,-5.10
3.8960879999999998,-5.10
3.896676,-5.10
3.897166,-5.10
3.897068,-5.10
3.897166,-5.10
3.897852,-5.10
3.89795,-5.10
3.8980479999999997,-5.10
3.89844,-5.10
3.8982439999999996,-5.10
3.8987339999999997,-5.10
3.8988319999999996,-5.10
3.899224,-5.10
3.899028,-5.10
3.8993219999999997,-5.10
3.899714,-5.10
3.9006939999999997,-5.11
3.9004,-5.10
3.901478,-5.11
3.901576,-5.10
3.901478,-5.10
3.90236,-5.11
3.903242,-5.11
3.903536,-5.11
3.903438,-5.11
3.9037319999999998,-5.11
3.904614,-5.11
3.905202,-5.11
3.905692,-5.11
3.905692,-5.11
3.905986,-5.11
3.905986,-5.11
3.906378,-5.11
3.906182,-5.11
3.906476,-5.11
3.906966,-5.11
3.907162,-5.11
3.90726,-5.11
3.9074560000000003,-5.11
3.9074560000000003,-5.11
3.907554,-5.10
3.907652,-5.10
3.9081420000000002,-5.11
3.907848,-5.10
3.9080439999999994,-5.10
3.908338,-5.10
3.9085339999999995,-5.10
3.9085339999999995,-5.10
3.9086319999999994,-5.10
3.9086319999999994,-5.10
3.908926,-5.10
3.9090239999999996,-5.10
3.9093180000000003,-5.10
3.909514,-5.10
3.9092199999999995,-5.10
3.9098079999999995,-5.11
3.9103959999999995,-5.11
3.9100040000000003,-5.11
3.9110819999999995,-5.11
3.9114739999999997,-5.11
3.9109839999999996,-5.11
3.9115719999999996,-5.11
3.9121599999999996,-5.11
3.912356,-5.11
3.9127479999999997,-5.11
3.9134339999999996,-5.11
3.9135319999999996,-5.11
3.9141199999999996,-5.11
3.9147079999999996,-5.11
3.9151979999999997,-5.11
3.9151979999999997,-5.11
3.914904,-5.11
3.915002,-5.11
3.915688,-5.11
3.91559,-5.11
3.9157859999999998,-5.11
3.9159819999999996,-5.11
3.9159819999999996,-5.11
3.916374,-5.11
3.916374,-5.11
3.916668,-5.11
3.9165699999999997,-5.11
3.9165699999999997,-5.11
3.916864,-5.11
3.917256,-5.11
3.917256,-5.11
3.917256,-5.11
3.917354,-5.11
3.917452,-5.11
3.917648,-5.11
3.91755,-5.11
3.9177459999999997,-5.11
3.9178439999999997,-5.11
3.917942,-5.11
3.918236,-5.11
3.918236,-5.11
3.9183339999999998,-5.11
3.9183339999999998,-5.11
3.918236,-5.11
3.9184319999999997,-5.11
3.9183339999999998,-5.10
3.9184319999999997,-5.10
3.918824,-5.11
3.918824,-5.11
3.918824,-5.10
3.919216,-5.11
3.919118,-5.11
3.919412,-5.11
3.9196079999999998,-5.11
3.919412,-5.11
3.920098,-5.11
3.92049,-5.11
3.9202939999999997,-5.11
3.920784,-5.11
3.920784,-5.11
3.920588,-5.11
3.920784,-5.11
3.921176,-5.11
3.921568,-5.11
3.922058,-5.11
3.922058,-5.11
3.92245,-5.11
3.922548,-5.11
3.92294,-5.11
3.92294,-5.11
3.923136,-5.11
3.923822,-5.11
3.923822,-5.11
3.9240180000000002,-5.11
3.924802,-5.11
3.9240180000000002,-5.11
3.924998,-5.11
3.924998,-5.11
3.924802,-5.11
3.9250959999999995,-5.11
3.9258800000000003,-5.11
3.9256839999999995,-5.11
3.925978,-5.11
3.9256839999999995,-5.11
3.9256839999999995,-5.11
3.9256839999999995,-5.11
3.9262719999999995,-5.11
3.9258800000000003,-5.11
3.9261739999999996,-5.11
3.926664,-5.11
3.9265660000000002,-5.11
3.926664,-5.11
3.9264680000000003,-5.11
3.9268599999999996,-5.11
3.9268599999999996,-5.11
3.9271540000000003,-5.11
3.9269579999999995,-5.11
3.9272519999999997,-5.11
3.9273499999999997,-5.11
3.9273499999999997,-5.11
3.9276439999999995,-5.11
3.9272519999999997,-5.11
3.9278399999999998,-5.11
3.9274479999999996,-5.11
3.9279379999999997,-5.11
3.9276439999999995,-5.11
3.9279379999999997,-5.11
3.9277420000000003,-5.11
3.9282319999999995,-5.11
3.9280359999999996,-5.11
3.9279379999999997,-5.11
3.9282319999999995,-5.11
3.92833,-5.11
3.9282319999999995,-5.11
3.92833,-5.11
3.9285259999999997,-5.11
3.9287219999999996,-5.11
3.928918,-5.11
3.929016,-5.11
3.9294079999999996,-5.11
3.9294079999999996,-5.11
3.9297999999999997,-5.11
3.9292119999999997,-5.11
3.929604,-5.11
3.929506,-5.11
3.9300939999999995,-5.11
3.9298979999999997,-5.11
3.9306819999999996,-5.11
3.9304859999999997,-5.11
3.9303879999999998,-5.11
3.9303879999999998,-5.11
3.9304859999999997,-5.11
3.93078,-5.11
3.9305839999999996,-5.11
3.93078,-5.11
3.9310739999999997,-5.11
3.931564,-5.11
3.931564,-5.11
3.931368,-5.11
3.931956,-5.11
3.931956,-5.11
3.9323479999999997,-5.11
3.9323479999999997,-5.11
3.9325439999999996,-5.11
3.93323,-5.11
3.932642,-5.11
3.93323,-5.11
3.93323,-5.11
3.933328,-5.11
3.933916,-5.11
3.9336219999999997,-5.11
3.934798,-5.11
3.9343079999999997,-5.11
3.9347,-5.11
3.9347,-5.11
3.934798,-5.11
3.9343079999999997,-5.11
3.935288,-5.11
3.9349939999999997,-5.11
3.9349939999999997,-5.11
3.935386,-5.11
3.935386,-5.11
3.9355819999999997,-5.11
3.9361699999999997,-5.11
3.9355819999999997,-5.11
3.93568,-5.11
3.93568,-5.11
3.935876,-5.11
3.935974,-5.11
3.936072,-5.11
3.936464,-5.11
3.936464,-5.11
3.936072,-5.11
3.936562,-5.11
3.936562,-5.11
3.93666,-5.11
3.93666,-5.11
3.936366,-5.11
3.9367579999999998,-5.11
3.9367579999999998,-5.11
3.936856,-5.11
3.936954,-5.11
3.936856,-5.11
3.937248,-5.11
3.937052,-5.11
3.936954,-5.11
3.9374439999999997,-5.11
3.93715,-5.11
3.93715,-5.11
3.937346,-5.11
3.937542,-5.11
3.937738,-5.11
3.937542,-5.11
3.9374439999999997,-5.11
3.937542,-5.11
3.906476,-0.58
3.905594,-0.57
3.905006,-0.57
3.90481,-0.57
3.904516,-0.57
3.904026,-0.57
3.904026,-0.57
3.903634,-0.57
3.902948,-0.57
3.90285,-0.57
3.90236,-0.57
3.90236,-0.57
3.901674,-0.57
3.901674,-0.57
3.9011839999999998,-0.57
3.900498,-0.56
3.901086,-0.57
3.899714,-0.56
3.899812,-0.56
3.8988319999999996,-0.56
3.8987339999999997,-0.56
3.898538,-0.56
3.897754,-0.56
3.897656,-0.56
3.8975579999999996,-0.56
3.8967739999999997,-0.56
3.8968719999999997,-0.56
3.8957939999999995,-0.56
3.89599,-0.56
3.8960879999999998,-0.56
3.89599,-0.56
