voltage(V),current(A)
3.8571819999999994,-0.48
3.85434,-0.48
3.85434,-0.48
3.85483,-0.48
3.854634,-0.48
3.822,-0.23
3.89893,-5.09
3.900302,-5.09
3.901772,-5.09
3.903242,-5.09
3.904516,-5.10
3.905496,-5.10
3.90628,-5.10
3.906476,-5.10
3.9068680000000002,-5.10
3.907162,-5.10
3.907848,-5.10
3.90775,-5.10
3.908338,-5.10
3.90824,-5.09
3.908828,-5.10
3.908926,-5.09
3.9092199999999995,-5.09
3.909514,-5.09
3.9101019999999997,-5.09
3.9107879999999997,-5.10
3.9115719999999996,-5.09
3.911866,-5.09
3.913042,-5.10
3.9134339999999996,-5.10
3.9146099999999997,-5.10
3.914806,-5.10
3.915002,-5.10
3.9153939999999996,-5.10
3.9158839999999997,-5.10
3.916178,-5.10
3.9164719999999997,-5.10
3.9165699999999997,-5.10
3.916668,-5.10
3.9170599999999998,-5.10
3.917354,-5.10
3.9171579999999997,-5.10
3.917648,-5.10
3.9177459999999997,-5.10
3.917452,-5.10
3.91804,-5.10
3.918138,-5.10
3.9183339999999998,-5.10
3.91853,-5.10
3.918726,-5.10
3.918726,-5.10
3.918922,-5.10
3.919412,-5.10
3.919804,-5.10
3.919804,-5.10
3.920392,-5.10
3.920588,-5.10
3.921568,-5.10
3.921862,-5.10
3.921372,-5.10
3.922548,-5.10
3.923136,-5.10
3.923136,-5.10
3.923626,-5.10
3.92392,-5.10
3.9246060000000003,-5.10
3.9246060000000003,-5.10
3.9252920000000002,-5.10
3.9252920000000002,-5.10
3.9257819999999994,-5.10
3.926076,-5.10
3.9261739999999996,-5.10
3.9261739999999996,-5.10
3.9263699999999995,-5.10
3.926664,-5.10
3.9268599999999996,-5.10
3.9267619999999996,-5.10
3.9268599999999996,-5.10
3.9270560000000003,-5.10
3.9272519999999997,-5.10
3.9274479999999996,-5.10
3.9277420000000003,-5.10
3.9281339999999996,-5.10
3.9280359999999996,-5.10
3.92833,-5.10
3.9281339999999996,-5.10
3.9279379999999997,-5.10
3.92833,-5.10
3.9288199999999995,-5.10
3.928428,-5.10
3.929016,-5.10
3.929506,-5.10
3.929506,-5.10
3.929702,-5.10
3.9294079999999996,-5.10
3.929702,-5.10
3.9297999999999997,-5.10
3.9311719999999997,-5.10
3.930878,-5.10
3.931368,-5.10
3.9310739999999997,-5.10
3.9305839999999996,-5.10
3.932054,-5.10
3.9318579999999996,-5.10
3.9325439999999996,-5.10
3.9329359999999998,-5.10
3.933328,-5.10
3.93323,-5.10
3.9336219999999997,-5.10
3.934602,-5.10
3.934798,-5.10
3.9348959999999997,-5.10
3.93519,-5.10
3.93519,-5.10
3.9354839999999998,-5.10
3.93568,-5.10
3.93568,-5.10
3.936072,-5.10
3.936268,-5.10
3.936464,-5.10
3.936366,-5.10
3.936268,-5.10
3.936464,-5.10
3.936856,-5.10
3.936954,-5.10
3.936954,-5.10
3.93715,-5.10
3.936856,-5.10
3.936954,-5.10
3.9374439999999997,-5.10
3.9374439999999997,-5.10
3.937542,-5.10
3.93764,-5.10
3.93813,-5.10
3.937738,-5.10
3.93764,-5.10
3.937934,-5.10
3.93813,-5.10
3.938326,-5.10
3.93813,-5.10
3.938228,-5.10
3.93862,-5.10
3.938718,-5.10
3.938816,-5.10
3.93911,-5.10
3.939502,-5.10
3.939502,-5.10
3.93911,-5.10
3.939698,-5.10
3.940286,-5.10
3.940286,-5.10
3.94058,-5.10
3.940776,-5.10
3.940776,-5.10
3.9411680000000002,-5.10
3.941266,-5.10
3.9417560000000003,-5.10
3.94205,-5.10
3.942638,-5.11
3.94254,-5.10
3.9423439999999994,-5.10
3.942638,-5.10
3.9428339999999995,-5.10
3.943128,-5.10
3.9435199999999995,-5.10
3.9441079999999995,-5.11
3.9443040000000003,-5.10
3.9440099999999996,-5.10
3.9442060000000003,-5.10
3.9442060000000003,-5.10
3.9447939999999995,-5.10
3.9444019999999997,-5.10
3.9449899999999998,-5.10
3.9451859999999996,-5.10
3.94548,-5.11
3.9452839999999996,-5.10
3.9451859999999996,-5.10
3.9457739999999997,-5.10
3.9458719999999996,-5.10
3.945578,-5.10
3.9458719999999996,-5.10
3.9459699999999995,-5.10
3.9459699999999995,-5.10
3.9464599999999996,-5.10
3.9462639999999998,-5.10
3.9465579999999996,-5.10
3.946656,-5.10
3.9465579999999996,-5.10
3.9465579999999996,-5.10
3.946656,-5.10
3.9469499999999997,-5.10
3.9470479999999997,-5.10
3.946852,-5.10
3.9471459999999996,-5.10
3.947342,-5.10
3.9471459999999996,-5.10
3.9472439999999995,-5.10
3.94744,-5.10
3.94744,-5.10
3.94744,-5.10
3.9475379999999998,-5.10
3.94744,-5.10
3.9476359999999997,-5.10
3.9478319999999996,-5.10
3.9478319999999996,-5.10
3.948028,-5.10
3.948028,-5.10
3.9483219999999997,-5.10
3.9482239999999997,-5.10
3.9483219999999997,-5.10
3.9484199999999996,-5.10
3.948616,-5.10
3.948714,-5.10
3.9490079999999996,-5.10
3.949302,-5.10
3.9489099999999997,-5.10
3.9494979999999997,-5.10
3.949204,-5.10
3.9494,-5.10
3.949106,-5.10
3.94989,-5.10
3.949792,-5.10
3.94989,-5.10
3.950576,-5.10
3.950478,-5.10
3.9508699999999997,-5.10
3.951164,-5.10
3.951262,-5.10
3.951262,-5.10
3.9508699999999997,-5.10
3.951556,-5.11
3.9520459999999997,-5.10
3.95234,-5.11
3.95234,-5.11
3.952242,-5.10
3.952536,-5.10
3.952242,-5.10
3.9526339999999998,-5.10
3.953222,-5.11
3.953516,-5.11
3.954006,-5.11
3.953614,-5.11
3.954202,-5.11
3.953712,-5.10
3.954006,-5.10
3.954202,-5.11
3.954006,-5.10
3.954496,-5.11
3.954692,-5.11
3.954692,-5.11
3.95528,-5.11
3.954888,-5.11
3.955378,-5.11
3.95528,-5.11
3.95528,-5.11
3.9551819999999998,-5.11
3.955378,-5.10
3.955574,-5.10
3.955476,-5.11
3.955672,-5.11
3.955868,-5.11
3.955966,-5.11
3.95577,-5.10
3.955574,-5.10
3.956162,-5.11
3.956064,-5.10
3.956162,-5.10
3.95626,-5.10
3.95626,-5.10
3.956162,-5.10
3.956358,-5.10
3.955868,-5.10
3.956358,-5.10
3.956358,-5.10
3.914904,-0.59
3.913728,-0.59
3.913042,-0.59
3.9126499999999997,-0.59
3.9121599999999996,-0.59
3.91118,-0.58
3.9103959999999995,-0.58
3.9101999999999997,-0.58
3.9090239999999996,-0.58
3.9079459999999995,-0.58
3.90775,-0.58
3.90726,-0.58
3.906574,-0.58
3.90628,-0.57
3.905888,-0.57
3.905692,-0.57
3.9053,-0.57
3.905594,-0.57
3.904908,-0.57
3.90481,-0.57
3.904516,-0.57
3.90432,-0.57
3.904418,-0.57
3.90432,-0.57
3.90432,-0.57
3.9037319999999998,-0.57
3.903928,-0.57
3.9037319999999998,-0.57
3.90334,-0.57
3.9031439999999997,-0.57
3.903046,-0.57
